timestamps,TP9,AF7,AF8,TP10,Right AUX
1687428434.350,420.410,29.785,42.480,86.914,20.996
1687428434.354,-90.332,28.320,43.457,-2.441,-78.613
1687428434.358,-426.758,26.367,44.434,-52.246,-62.988
1687428434.362,-179.199,24.902,41.992,-10.254,36.621
1687428434.366,348.633,25.879,38.086,73.730,27.344
1687428434.370,462.891,24.414,38.086,86.914,5.859
1687428434.374,-19.531,24.902,40.039,5.371,-21.484
1687428434.378,-422.363,22.949,38.086,-49.805,13.184
1687428434.381,-236.328,22.461,41.992,-14.160,7.324
1687428434.385,295.410,24.414,39.551,62.988,-29.785
1687428434.389,486.328,21.484,31.250,89.844,20.020
1687428434.393,52.246,22.949,30.762,20.020,30.273
1687428434.397,-388.184,26.367,34.180,-47.363,48.828
1687428434.401,-271.484,27.832,36.133,-32.715,41.016
1687428434.405,238.770,28.809,30.273,47.852,45.898
1687428434.409,512.695,32.715,31.738,95.215,40.039
1687428434.413,138.184,36.133,33.691,31.738,-25.391
1687428434.417,-347.656,36.133,36.621,-40.039,18.066
1687428434.421,-304.199,38.086,42.969,-30.273,61.523
1687428434.424,177.734,35.156,41.504,40.039,35.645
1687428434.428,514.648,31.738,37.598,93.262,-12.695
1687428434.432,206.543,32.227,38.574,38.086,-10.254
1687428434.436,-320.801,34.180,40.527,-41.016,-2.930
1687428434.440,-348.633,32.715,40.039,-36.133,17.090
1687428434.444,114.258,30.273,37.598,31.250,26.367
1687428434.448,501.465,29.785,37.598,93.750,-36.621
1687428434.452,265.625,31.250,45.410,60.059,52.734
1687428434.456,-270.508,34.668,45.898,-26.855,55.176
1687428434.460,-372.070,37.109,42.480,-37.598,-3.418
1687428434.464,50.293,36.133,42.969,36.133,16.113
1687428434.467,482.422,36.133,45.410,108.398,-19.043
1687428434.471,320.312,38.086,43.457,78.125,-69.336
1687428434.475,-217.285,40.527,39.062,-9.766,-49.805
1687428434.479,-395.508,39.062,41.992,-31.250,55.176
1687428434.483,-22.949,35.645,40.527,26.367,42.969
1687428434.487,452.148,36.621,40.039,100.098,32.227
1687428434.491,379.395,40.527,41.016,79.590,86.426
1687428434.495,-155.273,38.086,43.457,-7.812,61.523
1687428434.499,-408.203,33.691,45.410,-43.457,-11.719
1687428434.503,-85.449,29.785,41.016,3.906,-7.324
1687428434.506,413.086,21.973,40.039,83.008,-27.832
1687428434.510,414.062,22.461,40.527,90.332,-30.273
1687428434.514,-105.957,23.926,41.504,0.977,32.227
1687428434.518,-417.480,27.344,43.945,-42.969,5.859
1687428434.522,-149.414,28.320,44.922,5.371,15.625
1687428434.526,366.211,24.414,44.434,83.008,15.625
1687428434.530,454.590,23.438,39.062,93.750,28.809
1687428434.534,-32.715,25.879,35.645,7.324,15.625
1687428434.538,-406.250,28.320,32.715,-47.363,-36.621
1687428434.542,-208.496,24.414,34.180,-14.160,-23.438
1687428434.546,306.641,22.949,34.180,67.383,35.645
1687428434.549,479.004,24.902,31.250,93.262,56.152
1687428434.553,37.598,25.391,36.621,13.672,66.406
1687428434.557,-397.461,23.926,39.062,-41.504,39.062
1687428434.561,-264.648,21.484,36.133,-17.578,8.301
1687428434.565,253.418,21.973,32.715,54.688,47.363
1687428434.569,503.418,23.926,31.250,95.215,86.914
1687428434.573,111.328,25.391,34.180,30.762,49.316
1687428434.577,-363.281,23.926,38.574,-38.086,-4.395
1687428434.581,-298.828,25.391,41.016,-26.855,3.418
1687428434.585,185.547,25.879,37.598,46.387,64.453
1687428434.589,497.070,21.973,35.156,97.656,32.715
1687428434.592,168.945,23.438,41.504,40.039,-4.395
1687428434.596,-340.820,26.367,41.504,-39.551,-1.953
1687428434.600,-352.051,25.391,34.668,-36.133,24.902
1687428434.604,110.840,23.438,33.203,44.434,40.527
1687428434.608,486.816,26.855,34.180,103.027,-9.766
1687428434.612,235.840,29.297,36.621,54.688,10.254
1687428434.616,-296.875,29.297,40.527,-31.250,-7.324
1687428434.620,-387.207,25.879,41.016,-46.387,11.719
1687428434.624,50.781,24.414,38.574,21.484,38.086
1687428434.628,477.051,28.809,36.133,96.680,28.320
1687428434.631,292.480,30.273,31.738,60.059,82.031
1687428434.635,-242.676,28.320,33.203,-29.785,86.426
1687428434.639,-400.391,27.832,37.109,-48.828,41.504
1687428434.643,-11.719,27.344,32.227,14.648,55.664
1687428434.647,450.684,28.320,31.738,98.145,78.125
1687428434.651,349.609,30.273,34.668,76.172,63.965
1687428434.655,-181.152,31.250,30.762,-12.207,27.344
1687428434.659,-412.598,32.227,26.367,-48.340,-41.992
1687428434.663,-85.449,30.273,24.902,5.859,-80.078
1687428434.667,412.598,31.250,24.902,87.402,-48.340
1687428434.670,407.715,35.645,23.438,74.707,-16.602
1687428434.674,-114.746,35.156,25.391,-11.230,-49.805
1687428434.678,-415.039,30.762,28.320,-54.199,38.086
1687428434.682,-136.719,31.250,27.832,-10.254,16.602
1687428434.686,371.582,32.227,26.367,73.730,-50.293
1687428434.690,438.965,31.738,26.367,82.520,42.480
1687428434.694,-53.711,31.250,28.320,-1.465,45.410
1687428434.698,-417.480,29.785,26.367,-55.176,18.555
1687428434.702,-195.801,31.250,27.344,-19.531,-37.109
1687428434.706,327.148,32.715,25.391,68.848,13.184
1687428434.710,473.633,33.203,25.879,91.797,65.918
1687428434.713,24.414,34.668,28.320,10.254,-10.742
1687428434.717,-388.184,33.203,31.738,-56.152,-59.570
1687428434.721,-247.070,29.785,34.668,-26.367,-30.273
1687428434.725,263.672,28.320,27.832,57.129,-14.160
1687428434.729,493.652,27.344,27.832,90.332,29.785
1687428434.733,94.238,27.344,33.691,28.809,45.898
1687428434.737,-360.840,30.273,33.691,-39.551,63.477
1687428434.741,-281.250,29.785,35.645,-24.902,44.434
1687428434.745,211.914,29.785,36.133,60.547,-4.883
1687428434.749,509.766,29.785,28.320,103.027,-29.785
1687428434.753,169.434,28.809,32.227,40.039,-21.484
1687428434.756,-334.961,28.320,38.574,-39.062,10.254
1687428434.760,-326.660,24.902,34.668,-33.203,14.160
1687428434.764,148.438,21.484,35.156,52.734,30.762
1687428434.768,507.324,22.461,32.715,104.980,1.465
1687428434.772,232.422,24.414,29.785,55.664,-9.277
1687428434.776,-294.434,26.367,34.180,-29.785,-43.457
1687428434.780,-358.887,21.484,37.598,-35.156,-42.969
1687428434.784,78.125,22.461,31.738,41.504,0.000
1687428434.788,488.770,23.926,28.809,98.633,1.465
1687428434.792,291.992,25.879,31.738,62.012,0.488
1687428434.795,-246.094,31.738,35.645,-27.832,4.883
1687428434.799,-397.461,26.367,41.016,-37.598,-10.254
1687428434.803,0.977,27.344,38.086,31.738,-53.223
1687428434.807,465.332,30.762,39.551,97.168,-15.137
1687428434.811,337.891,27.344,44.434,74.707,-13.184
1687428434.815,-203.613,27.344,41.016,-20.996,22.949
1687428434.819,-416.992,22.949,42.480,-52.246,97.168
1687428434.823,-70.801,18.066,41.992,11.230,18.555
1687428434.827,417.480,20.508,39.551,87.891,-4.395
1687428434.831,384.766,22.461,37.109,81.055,53.223
1687428434.835,-137.695,26.367,35.645,-15.137,26.855
1687428434.838,-416.992,28.809,42.480,-57.617,-37.598
1687428434.842,-122.070,29.297,45.898,4.883,0.488
1687428434.846,390.137,31.250,38.086,80.566,44.434
1687428434.850,447.754,32.715,35.156,83.008,24.414
1687428434.854,-52.246,30.762,39.062,-2.930,27.344
1687428434.858,-404.297,26.855,40.527,-55.664,7.324
1687428434.862,-179.688,23.926,38.086,-9.766,-35.645
1687428434.866,333.008,26.855,36.133,71.777,-43.457
1687428434.870,459.473,28.809,36.621,92.285,-12.695
1687428434.874,1.465,31.250,38.086,17.090,45.898
1687428434.878,-393.066,35.645,44.434,-40.039,21.484
1687428434.881,-231.934,34.668,46.387,-4.883,12.695
1687428434.885,278.809,31.738,40.527,76.172,23.926
1687428434.889,485.840,30.762,34.180,99.609,-36.621
1687428434.893,76.660,36.621,34.180,19.531,-29.785
1687428434.897,-374.023,36.133,37.109,-47.363,-4.883
1687428434.901,-283.691,34.668,40.527,-19.531,16.602
1687428434.905,224.609,37.109,38.574,60.059,48.828
1687428434.909,501.953,33.203,38.574,101.074,5.859
1687428434.913,137.695,32.715,37.109,31.250,8.301
1687428434.917,-354.980,31.738,37.109,-45.898,33.691
1687428434.921,-327.148,30.762,40.527,-28.320,48.828
1687428434.924,156.250,29.785,35.645,50.781,54.199
1687428434.928,507.812,32.227,32.715,109.375,44.434
1687428434.932,219.238,37.109,37.598,61.035,13.184
1687428434.936,-301.270,33.691,38.086,-21.973,5.371
1687428434.940,-342.285,31.738,35.156,-19.043,7.812
1687428434.944,101.074,29.785,34.180,52.734,1.465
1687428434.948,494.141,29.297,35.156,114.746,-1.465
1687428434.952,283.691,31.738,37.598,74.219,54.688
1687428434.956,-249.512,35.156,36.133,-18.555,96.680
1687428434.960,-375.488,36.133,38.574,-27.344,46.875
1687428434.963,28.809,28.809,40.527,33.691,44.922
1687428434.967,472.656,28.320,39.551,97.656,43.945
1687428434.971,337.891,30.762,41.016,72.266,23.438
1687428434.975,-202.148,27.344,44.434,-18.555,34.668
1687428434.979,-399.902,29.785,42.480,-39.551,47.363
1687428434.983,-38.086,30.273,41.992,17.578,-8.789
1687428434.987,442.871,28.809,40.039,93.750,-7.324
1687428434.991,384.277,31.250,30.762,81.543,67.383
1687428434.995,-147.949,28.320,30.762,-18.066,42.480
1687428434.999,-410.156,26.855,35.156,-53.223,22.949
1687428435.002,-100.586,27.832,34.180,1.953,-19.043
1687428435.006,398.926,25.391,33.691,84.473,-89.355
1687428435.010,424.316,24.902,33.691,82.520,-18.555
1687428435.014,-84.473,25.879,35.156,-7.812,52.246
1687428435.018,-412.598,25.879,38.086,-47.852,42.480
1687428435.022,-160.156,30.273,41.016,0.488,41.992
1687428435.026,353.516,25.391,36.133,82.520,43.457
1687428435.030,465.820,21.973,32.227,92.773,18.066
1687428435.034,-4.395,25.391,38.574,7.812,-15.137
1687428435.038,-396.484,26.855,41.992,-42.969,-19.531
1687428435.042,-214.355,26.367,40.039,-10.742,-5.371
1687428435.045,303.223,25.879,37.109,72.754,14.160
1687428435.049,493.164,26.367,38.086,104.492,41.504
1687428435.053,73.242,32.227,42.969,33.203,36.621
1687428435.057,-371.094,33.203,42.969,-31.250,9.277
1687428435.061,-258.789,28.809,42.480,-11.230,-31.738
1687428435.065,247.559,31.250,37.109,71.289,-17.578
1687428435.069,509.277,31.738,30.762,108.398,28.809
1687428435.073,132.812,29.785,31.738,34.180,44.922
1687428435.077,-352.539,32.227,32.715,-36.133,28.809
1687428435.081,-306.152,29.297,32.227,-21.973,30.273
1687428435.085,174.805,25.391,32.227,55.664,55.664
1687428435.088,502.441,26.367,31.250,98.633,-4.395
1687428435.092,198.242,25.391,33.691,38.574,-25.391
1687428435.096,-312.012,25.391,41.016,-30.273,-23.438
1687428435.100,-342.285,26.367,38.574,-32.715,-39.062
1687428435.104,113.281,24.902,28.320,38.086,47.852
1687428435.108,498.047,20.996,28.320,101.562,80.078
1687428435.112,263.184,21.973,38.574,57.129,17.578
1687428435.116,-268.555,25.391,39.551,-22.949,7.324
1687428435.120,-376.465,23.926,43.945,-34.668,-12.207
1687428435.124,45.898,20.020,44.434,27.832,7.812
1687428435.128,479.004,18.555,33.691,96.680,30.273
1687428435.131,312.012,20.020,36.133,63.965,2.441
1687428435.135,-219.727,21.484,38.086,-28.809,-21.973
1687428435.139,-395.020,20.996,34.180,-49.316,-32.715
1687428435.143,-26.367,23.438,36.133,18.066,-0.977
1687428435.147,447.266,25.879,31.250,90.820,17.578
1687428435.151,372.070,25.879,28.809,72.266,25.391
1687428435.155,-152.832,27.832,38.086,-11.230,17.090
1687428435.159,-400.879,22.949,38.574,-47.363,63.965
1687428435.163,-87.891,16.602,35.156,3.906,60.547
1687428435.167,406.250,21.484,36.133,81.543,-7.324
1687428435.170,410.156,24.414,36.621,81.055,16.113
1687428435.174,-102.051,22.949,39.062,0.488,39.062
1687428435.178,-408.203,24.414,38.086,-45.898,16.602
1687428435.182,-142.090,21.484,34.668,-0.488,-11.719
1687428435.186,365.234,20.508,36.133,82.520,56.641
1687428435.190,447.266,20.996,35.156,95.215,41.016
1687428435.194,-38.086,20.508,36.133,13.672,-51.270
1687428435.198,-409.668,20.508,38.574,-39.551,-3.906
1687428435.202,-214.844,16.113,36.621,0.000,3.906
1687428435.206,302.734,12.207,36.133,84.961,35.156
1687428435.210,478.516,12.207,37.109,104.492,28.320
1687428435.213,39.551,14.160,39.062,27.832,-34.668
1687428435.217,-385.254,14.648,41.504,-36.621,-10.742
1687428435.221,-255.371,15.137,40.527,-13.184,65.430
1687428435.225,250.977,13.672,35.156,72.266,27.832
1687428435.229,497.559,15.625,34.668,108.887,-3.418
1687428435.233,109.863,22.461,36.621,35.156,13.184
1687428435.237,-363.281,23.438,38.086,-37.598,8.789
1687428435.241,-297.852,22.461,37.598,-21.973,46.875
1687428435.245,191.895,23.438,35.156,59.082,14.160
1687428435.249,504.395,24.902,36.133,108.398,42.969
1687428435.252,179.688,28.320,40.039,47.852,13.184
1687428435.256,-330.078,23.926,41.016,-36.621,-45.410
1687428435.260,-345.703,19.531,39.062,-36.621,-31.738
1687428435.264,118.164,21.973,43.457,41.504,-27.344
1687428435.268,493.164,20.508,41.504,89.844,-28.809
1687428435.272,235.840,18.555,31.738,38.574,17.090
1687428435.276,-293.945,20.508,33.203,-44.434,12.207
1687428435.280,-379.883,20.020,38.574,-58.594,-45.410
1687428435.284,41.992,16.113,29.785,11.230,-10.742
1687428435.288,460.449,15.625,27.344,78.613,30.762
1687428435.292,283.203,16.113,35.645,45.898,33.691
1687428435.295,-241.699,18.555,38.574,-37.598,21.484
1687428435.299,-394.531,22.461,37.598,-54.688,-8.789
1687428435.303,-7.324,20.996,34.180,16.602,29.297
1687428435.307,451.660,19.043,39.551,97.168,73.242
1687428435.311,352.539,21.973,41.992,73.730,17.090
1687428435.315,-169.434,25.879,36.621,-15.625,-9.277
1687428435.319,-394.531,27.344,40.039,-39.551,18.066
1687428435.323,-62.988,29.297,37.109,19.531,49.316
1687428435.327,421.387,28.320,28.809,92.285,65.430
1687428435.331,402.832,27.344,30.273,88.379,62.500
1687428435.335,-114.258,30.273,33.203,4.395,67.383
1687428435.338,-410.645,30.273,33.691,-44.434,26.855
1687428435.342,-133.789,29.785,38.574,4.395,31.738
1687428435.346,374.023,28.809,40.039,86.426,-14.648
1687428435.350,437.988,28.320,40.039,91.797,-33.203
1687428435.354,-54.199,28.320,42.480,14.648,-16.113
1687428435.358,-409.180,25.879,41.992,-37.598,-17.090
1687428435.362,-187.500,28.809,45.898,-2.930,-31.250
1687428435.366,325.195,30.273,43.945,80.566,-75.684
1687428435.370,467.773,30.273,38.574,104.492,-23.926
1687428435.374,24.902,32.715,39.551,24.414,-30.762
1687428435.377,-386.719,24.902,41.016,-42.969,-51.758
1687428435.381,-239.258,23.926,44.922,-6.348,11.230
1687428435.385,270.996,23.926,43.945,82.031,2.441
1687428435.389,493.652,25.879,41.504,115.234,2.441
1687428435.393,89.355,25.879,50.293,43.457,-21.484
1687428435.397,-371.582,22.949,55.664,-29.297,-14.160
1687428435.401,-294.922,22.461,49.805,-6.348,33.691
1687428435.405,195.801,21.973,45.410,70.801,0.000
1687428435.409,495.117,26.367,39.551,104.004,-1.953
1687428435.413,155.273,31.738,44.434,47.363,-15.625
1687428435.417,-344.727,29.297,49.805,-23.438,-39.062
1687428435.420,-335.938,24.414,41.504,-28.320,23.438
1687428435.424,127.930,23.926,36.133,36.133,3.906
1687428435.428,484.863,23.438,34.668,90.820,15.137
1687428435.432,212.402,25.391,36.621,40.039,1.465
1687428435.436,-308.105,23.926,37.109,-40.039,-27.832
1687428435.440,-367.676,22.461,36.133,-43.457,-4.395
1687428435.444,70.312,24.902,36.133,29.785,21.484
1687428435.448,484.375,27.832,40.039,108.887,32.227
1687428435.452,288.574,26.855,47.363,68.848,9.277
1687428435.456,-239.746,20.996,44.434,-24.902,40.039
1687428435.459,-379.883,21.484,39.551,-36.133,-14.648
1687428435.463,11.230,22.461,35.156,27.344,-16.113
1687428435.467,469.238,25.391,35.156,102.051,102.539
1687428435.471,348.145,28.320,38.086,81.055,121.582
1687428435.475,-185.059,31.250,37.109,-12.207,76.172
1687428435.479,-393.555,29.297,36.133,-42.480,26.367
1687428435.483,-49.316,25.391,35.645,19.531,22.949
1687428435.487,429.199,29.297,33.203,95.215,33.691
1687428435.491,393.066,30.273,34.180,81.543,24.902
1687428435.495,-118.164,30.762,38.574,0.977,23.438
1687428435.499,-397.461,30.762,41.992,-34.668,-14.160
1687428435.502,-113.770,25.879,37.109,10.254,35.156
1687428435.506,391.113,20.996,30.762,92.773,89.844
1687428435.510,439.453,19.531,31.250,94.238,63.477
1687428435.514,-62.988,22.949,37.109,2.441,79.590
1687428435.518,-409.180,26.855,38.574,-41.016,110.352
1687428435.522,-177.734,23.926,38.086,2.441,34.668
1687428435.526,340.820,22.949,39.551,85.449,4.883
1687428435.530,472.656,25.879,35.645,104.492,46.387
1687428435.534,6.836,25.879,32.715,23.926,10.742
1687428435.538,-393.066,24.902,38.086,-37.109,-36.133
1687428435.542,-230.469,23.438,39.551,-5.371,-19.531
1687428435.545,279.297,20.020,40.039,79.102,58.105
1687428435.549,483.887,17.578,41.992,109.863,6.836
1687428435.553,73.242,16.602,43.457,31.738,-42.480
1687428435.557,-369.629,15.625,43.945,-41.992,-10.254
1687428435.561,-276.367,15.625,40.527,-18.066,17.090
1687428435.565,216.309,13.184,40.039,63.477,23.438
1687428435.569,497.559,13.184,40.039,103.516,23.438
1687428435.573,147.949,19.043,42.969,41.992,10.742
1687428435.577,-335.938,20.996,46.387,-27.832,-10.254
1687428435.581,-305.176,23.926,50.781,-16.602,11.719
1687428435.584,168.945,25.391,48.340,57.617,2.930
1687428435.588,502.441,17.578,39.062,108.887,4.883
1687428435.592,210.449,19.043,42.969,56.152,29.297
1687428435.596,-295.898,20.508,46.387,-27.344,65.918
1687428435.600,-336.426,16.113,47.852,-29.297,-6.348
1687428435.604,104.980,14.648,49.805,44.434,1.465
1687428435.608,496.094,16.113,44.922,104.004,49.805
1687428435.612,283.691,16.602,47.852,63.477,2.441
1687428435.616,-246.582,21.484,48.340,-20.996,-4.883
1687428435.620,-373.047,20.996,43.457,-36.133,29.785
1687428435.624,32.227,19.043,42.969,35.156,-17.578
1687428435.627,472.168,18.555,43.457,104.980,-40.039
1687428435.631,339.844,20.508,40.527,74.707,-7.812
1687428435.635,-191.895,22.461,41.992,-11.230,-53.223
1687428435.639,-393.066,20.508,45.410,-38.574,-55.176
1687428435.643,-33.203,20.020,44.434,17.578,-31.250
1687428435.647,450.195,17.578,39.551,92.773,9.277
1687428435.651,385.742,18.066,34.668,79.102,56.152
1687428435.655,-142.090,23.926,39.062,-11.230,90.820
1687428435.659,-407.227,22.461,43.945,-52.734,3.906
1687428435.663,-104.980,22.461,40.527,4.883,-62.012
1687428435.667,392.578,26.367,38.086,86.914,5.859
1687428435.670,416.504,26.855,46.387,86.426,36.621
1687428435.674,-83.008,27.832,45.410,-0.977,35.156
1687428435.678,-408.203,26.367,39.062,-54.688,22.949
1687428435.682,-169.922,25.391,40.527,-3.418,-21.484
1687428435.686,335.938,26.855,40.527,83.496,-17.578
1687428435.690,458.008,32.715,42.480,94.727,65.918
1687428435.694,-2.930,32.227,49.316,18.555,67.383
1687428435.698,-394.043,28.320,51.758,-41.016,45.898
1687428435.702,-211.914,27.344,46.387,-6.836,43.945
1687428435.706,298.828,27.344,37.598,70.312,20.020
1687428435.709,483.887,25.879,41.016,96.191,-10.254
1687428435.713,71.289,26.855,47.852,32.715,-13.672
1687428435.717,-367.188,29.785,43.945,-35.645,36.133
1687428435.721,-264.648,26.855,42.969,-11.230,68.359
1687428435.725,239.258,24.414,42.480,72.754,53.711
1687428435.729,499.512,24.414,39.551,111.328,-11.230
1687428435.733,129.395,23.926,38.086,44.434,-9.277
1687428435.737,-342.773,28.320,40.039,-34.180,57.617
1687428435.741,-299.316,27.832,41.992,-20.508,82.031
1687428435.745,171.387,23.438,41.504,56.152,72.266
1687428435.748,499.512,26.367,41.016,104.492,24.902
1687428435.752,199.707,25.879,43.457,50.293,16.602
1687428435.756,-315.430,23.926,45.410,-37.598,-32.227
1687428435.760,-344.238,24.902,46.875,-31.738,-43.945
1687428435.764,115.234,29.297,45.898,53.223,-38.086
1687428435.768,499.512,31.250,42.969,109.375,-43.457
1687428435.772,264.160,28.320,37.109,61.523,-51.758
1687428435.776,-261.230,28.809,38.086,-20.996,-57.617
1687428435.780,-366.211,29.297,44.434,-28.320,27.832
1687428435.784,44.434,29.297,41.504,34.180,38.086
1687428435.788,467.773,26.855,40.039,102.051,25.391
1687428435.791,313.477,26.855,41.016,78.125,33.203
1687428435.795,-208.496,31.738,39.062,-16.602,-28.320
1687428435.799,-380.859,31.250,41.016,-36.133,-35.156
1687428435.803,-14.648,28.320,41.992,30.273,-8.301
1687428435.807,449.219,25.879,40.039,98.633,7.812
1687428435.811,380.371,25.879,39.551,80.078,37.598
1687428435.815,-145.020,28.320,43.457,-10.742,45.898
1687428435.819,-399.414,25.879,43.457,-42.480,45.898
1687428435.823,-89.844,24.902,44.922,18.066,46.875
1687428435.827,400.391,25.391,42.969,95.703,26.367
1687428435.831,404.297,28.809,43.457,88.867,-1.465
1687428435.834,-108.887,28.809,48.828,-2.441,4.883
1687428435.838,-424.316,26.855,46.387,-54.199,18.555
1687428435.842,-161.621,27.832,41.016,-11.719,5.859
1687428435.846,339.355,25.391,40.039,69.336,-15.137
1687428435.850,427.246,24.902,40.039,75.684,-45.898
1687428435.854,-34.180,27.344,40.039,-10.742,-41.016
1687428435.858,-403.320,27.832,43.457,-64.941,31.250
1687428435.862,-213.379,29.297,43.945,-25.391,74.707
1687428435.866,292.480,26.367,40.527,55.664,26.367
1687428435.870,459.473,23.438,41.992,89.355,20.996
1687428435.874,35.645,27.832,48.340,20.996,61.523
1687428435.877,-385.742,26.367,49.316,-45.898,45.410
1687428435.881,-265.625,21.973,47.852,-18.066,28.809
1687428435.885,237.305,23.438,46.387,64.941,20.996
1687428435.889,475.586,20.996,47.852,100.586,-20.508
1687428435.893,92.773,22.461,49.805,28.809,-62.988
1687428435.897,-362.305,24.414,47.852,-42.969,-16.602
1687428435.901,-293.945,20.996,45.410,-21.973,-4.883
1687428435.905,187.500,21.484,41.504,57.617,20.020
1687428435.909,497.559,19.043,42.969,100.098,51.758
1687428435.913,186.035,19.531,43.945,46.875,6.348
1687428435.916,-312.012,22.949,42.969,-33.203,-9.766
1687428435.920,-331.543,21.973,42.480,-29.297,-30.273
1687428435.924,113.770,20.020,35.156,46.875,64.453
1687428435.928,486.328,18.066,33.203,100.098,62.500
1687428435.932,244.629,18.555,38.086,47.852,-7.812
1687428435.936,-277.344,17.090,40.527,-34.180,18.555
1687428435.940,-361.328,18.066,38.574,-34.668,-54.199
1687428435.944,58.105,18.555,31.250,35.156,-31.738
1687428435.948,473.145,18.555,32.715,103.027,75.684
1687428435.952,299.316,24.414,38.086,68.848,57.617
1687428435.956,-226.562,25.879,37.109,-18.555,4.883
1687428435.959,-382.812,21.484,36.133,-32.227,11.719
1687428435.963,-2.930,22.949,40.039,31.250,-15.625
1687428435.967,452.148,21.973,38.574,110.352,-60.547
1687428435.971,362.793,21.484,37.109,90.820,-46.387
1687428435.975,-148.926,24.414,39.062,-1.465,-44.922
1687428435.979,-378.906,25.391,37.598,-26.367,-79.102
1687428435.983,-53.711,20.996,35.156,26.855,-54.199
1687428435.987,428.223,17.090,32.715,101.562,-15.625
1687428435.991,415.039,20.508,31.738,90.332,10.254
1687428435.995,-87.891,20.508,39.062,3.418,19.531
1687428435.998,-384.766,18.066,42.480,-33.691,-17.578
1687428436.002,-123.047,14.648,38.086,7.324,-8.301
1687428436.006,374.512,14.648,31.738,83.008,16.602
1687428436.010,440.430,17.090,32.227,91.309,-24.902
1687428436.014,-46.875,18.066,35.645,8.789,3.418
1687428436.018,-400.391,20.020,36.133,-47.363,33.203
1687428436.022,-185.059,16.113,36.621,-11.230,-35.645
1687428436.026,318.848,11.719,35.645,72.754,-42.969
1687428436.030,463.867,15.625,38.574,89.355,0.000
1687428436.034,23.438,17.578,40.527,12.695,15.625
1687428436.038,-388.184,15.625,40.039,-49.805,2.441
1687428436.041,-256.836,14.160,40.039,-22.949,-20.020
1687428436.045,243.164,13.672,39.062,60.059,-18.066
1687428436.049,470.703,15.625,38.574,87.402,36.621
1687428436.053,82.520,16.602,40.039,20.996,79.590
1687428436.057,-371.094,12.695,44.434,-37.109,87.891
1687428436.061,-300.781,13.672,43.457,-20.996,66.895
1687428436.065,194.824,19.043,40.527,51.758,16.113
1687428436.069,497.559,18.555,40.039,97.168,53.711
1687428436.073,165.527,21.484,44.434,41.504,27.832
1687428436.077,-324.219,24.902,50.293,-27.344,-17.578
1687428436.080,-316.895,21.484,45.898,-19.043,24.414
1687428436.084,147.461,19.531,41.016,57.617,31.738
1687428436.088,500.977,23.438,40.039,106.934,77.148
1687428436.092,231.445,22.461,41.016,51.758,46.875
1687428436.096,-283.691,23.926,42.480,-29.785,-32.227
1687428436.100,-354.980,22.949,43.457,-35.645,-5.371
1687428436.104,70.801,21.484,40.039,36.133,-17.578
1687428436.108,478.027,25.391,36.133,94.727,-18.066
1687428436.112,291.016,28.320,46.875,60.059,8.301
1687428436.116,-237.793,26.367,53.711,-15.625,31.738
1687428436.120,-377.930,24.902,46.875,-29.297,-1.953
1687428436.123,17.578,28.809,44.434,30.762,-19.531
1687428436.127,463.379,23.926,40.039,92.773,57.617
1687428436.131,348.145,20.020,38.086,74.707,33.691
1687428436.135,-177.246,22.461,41.016,-5.859,-4.395
1687428436.139,-383.301,27.344,41.992,-35.156,-22.461
1687428436.143,-46.875,25.391,39.551,24.902,-18.555
1687428436.147,421.387,22.461,38.574,95.215,21.973
1687428436.151,392.578,27.344,39.062,82.520,78.613
1687428436.155,-116.699,28.320,41.504,-2.441,58.105
1687428436.159,-404.297,22.949,39.551,-47.363,-13.672
1687428436.163,-128.906,21.973,40.039,3.906,-8.789
1687428436.166,366.699,23.438,38.086,77.637,24.414
1687428436.170,425.293,23.438,32.715,76.172,-5.859
1687428436.174,-57.617,26.367,37.598,3.906,-1.953
1687428436.178,-398.926,27.344,40.527,-43.945,3.418
1687428436.182,-174.805,21.973,38.574,-7.812,-44.434
1687428436.186,325.684,19.531,34.668,65.918,-5.371
1687428436.190,453.125,19.043,35.645,84.473,45.898
1687428436.194,5.859,16.602,43.945,16.602,42.969
1687428436.198,-388.184,13.184,48.340,-39.062,-10.254
1687428436.202,-226.074,14.160,46.387,-2.441,-15.137
1687428436.205,278.809,17.578,43.945,76.660,56.152
1687428436.209,481.445,22.461,41.992,108.398,60.547
1687428436.213,83.496,26.367,42.969,49.316,44.434
1687428436.217,-356.445,24.902,45.410,-20.508,6.348
1687428436.221,-272.461,24.414,47.363,-7.324,22.949
1687428436.225,218.750,25.391,41.016,68.359,63.965
1687428436.229,502.930,26.855,34.668,108.887,77.637
1687428436.233,157.227,28.809,39.551,46.875,46.387
1687428436.237,-331.543,27.832,44.434,-31.738,3.418
1687428436.241,-313.477,25.879,44.434,-17.578,23.438
1687428436.245,156.738,25.879,39.062,56.641,10.742
1687428436.248,500.977,23.926,36.133,102.051,-1.465
1687428436.252,220.703,23.438,39.062,60.547,16.602
1687428436.256,-283.691,27.344,41.504,-23.926,-3.418
1687428436.260,-327.637,28.809,40.039,-34.180,-8.301
1687428436.264,104.004,25.879,37.109,37.598,14.160
1687428436.268,490.234,25.879,36.621,94.727,-17.090
1687428436.272,283.203,26.367,40.527,63.965,-30.762
1687428436.276,-241.211,25.391,42.969,-20.996,0.000
1687428436.280,-371.094,23.926,41.992,-36.621,-6.836
1687428436.284,24.414,25.391,41.504,32.715,26.855
1687428436.288,460.938,27.832,38.086,92.285,5.859
1687428436.291,333.984,27.344,40.527,69.336,-28.320
1687428436.295,-189.453,28.809,43.457,-10.254,8.301
1687428436.299,-392.578,27.832,44.922,-35.645,-16.113
1687428436.303,-45.898,26.367,43.457,13.184,36.621
1687428436.307,421.875,21.484,37.109,86.914,95.703
1687428436.311,371.582,20.020,37.598,82.520,13.672
1687428436.315,-138.184,25.391,42.480,-4.395,-2.930
1687428436.319,-406.250,21.973,47.852,-41.504,-20.020
1687428436.323,-110.352,17.578,44.922,7.324,-30.273
1687428436.327,382.324,17.578,39.062,82.031,-8.301
1687428436.330,412.598,17.578,41.504,85.449,17.090
1687428436.334,-74.219,18.066,42.969,1.465,40.527
1687428436.338,-402.832,18.066,35.645,-43.457,16.602
1687428436.342,-164.551,20.996,34.180,-2.930,36.621
1687428436.346,341.797,24.414,34.668,71.777,59.570
1687428436.350,461.914,26.855,33.691,94.727,48.828
1687428436.354,5.859,26.367,39.062,13.672,-4.883
1687428436.358,-379.883,27.344,39.551,-47.363,-42.480
1687428436.362,-206.543,32.227,43.457,-9.277,33.203
1687428436.366,289.551,29.297,45.410,69.824,28.320
1687428436.370,471.191,27.344,35.645,96.191,-37.598
1687428436.373,63.477,32.715,33.691,22.949,-26.367
1687428436.377,-367.188,32.227,37.109,-43.457,-8.789
1687428436.381,-261.719,32.227,38.086,-29.297,-13.184
1687428436.385,232.422,30.762,39.551,52.734,-28.809
1687428436.389,479.492,30.273,40.039,101.562,-36.133
1687428436.393,121.094,34.668,37.598,34.180,-28.809
1687428436.397,-337.402,34.668,40.527,-36.621,7.324
1687428436.401,-302.246,32.715,42.969,-24.902,30.273
1687428436.405,169.434,31.250,45.410,50.781,32.715
1687428436.409,489.258,28.809,42.480,101.074,48.828
1687428436.413,190.430,31.250,37.109,46.387,54.688
1687428436.416,-310.547,32.715,42.480,-25.391,3.418
1687428436.420,-345.215,28.320,44.434,-28.809,15.137
1687428436.424,97.168,26.855,39.551,33.203,31.250
1687428436.428,478.516,27.832,39.062,92.773,-41.016
1687428436.432,256.836,31.738,41.504,55.176,21.484
1687428436.436,-261.230,34.668,42.969,-25.879,81.055
1687428436.440,-363.770,32.715,41.504,-45.898,-32.227
1687428436.444,37.598,29.785,33.691,20.020,-33.691
1687428436.448,459.961,27.344,32.715,95.703,72.754
1687428436.452,313.965,26.367,35.645,67.383,41.992
1687428436.455,-206.055,30.762,36.621,-17.090,51.270
1687428436.459,-385.254,27.832,43.457,-36.621,74.707
1687428436.463,-29.297,23.438,44.434,22.461,33.691
1687428436.467,437.500,27.344,46.387,98.633,44.434
1687428436.471,375.488,29.297,48.828,88.867,20.020
1687428436.475,-141.113,29.785,41.992,0.977,-2.930
1687428436.479,-389.160,25.879,41.992,-35.156,3.906
1687428436.483,-83.496,24.414,43.457,20.996,-41.504
1687428436.487,402.832,25.879,41.016,97.656,-34.180
1687428436.491,422.852,22.949,39.062,91.797,-1.953
1687428436.494,-74.219,22.461,41.016,10.254,60.059
1687428436.498,-389.160,22.461,41.992,-39.551,46.875
1687428436.502,-138.184,20.508,42.480,0.488,15.137
1687428436.506,359.375,20.996,40.039,81.543,43.945
1687428436.510,451.172,21.484,41.504,94.238,41.016
1687428436.514,-17.578,20.508,41.504,12.695,43.457
1687428436.518,-395.996,20.508,38.574,-47.363,70.801
1687428436.522,-209.473,19.531,38.574,-10.742,50.293
1687428436.526,291.504,18.555,44.922,74.219,29.297
1687428436.530,465.332,20.020,43.457,98.145,-13.672
1687428436.534,47.852,22.461,41.504,22.461,-19.043
1687428436.537,-379.883,20.996,48.340,-40.039,13.184
1687428436.541,-264.160,22.949,49.316,-15.625,42.480
1687428436.545,238.281,22.949,44.434,62.988,-9.766
1687428436.549,490.723,24.414,45.410,102.051,-25.879
1687428436.553,116.699,27.344,45.898,38.086,62.988
1687428436.557,-347.656,26.855,45.898,-34.668,23.926
1687428436.561,-290.039,27.832,45.410,-25.391,9.766
1687428436.565,185.547,26.855,36.621,52.246,15.137
1687428436.569,496.582,26.367,32.227,100.586,-47.363
1687428436.573,185.059,26.367,40.527,47.852,-44.922
1687428436.577,-305.664,28.320,45.898,-24.902,38.574
1687428436.580,-321.289,28.320,43.945,-22.949,24.902
1687428436.584,118.164,25.879,39.551,49.316,-10.254
1687428436.588,488.281,24.902,34.668,101.074,-27.344
1687428436.592,250.977,25.391,43.457,60.059,-68.359
1687428436.596,-274.414,23.926,45.410,-17.090,-47.852
1687428436.600,-372.070,19.043,33.203,-29.785,-57.129
1687428436.604,46.387,19.043,32.715,37.109,-48.828
1687428436.608,466.797,19.531,35.156,101.074,3.906
1687428436.612,295.410,17.090,34.668,64.453,-34.180
1687428436.616,-227.539,22.949,42.480,-21.484,-29.785
1687428436.620,-390.137,24.902,48.340,-42.969,-15.625
1687428436.623,-19.531,17.578,33.203,12.207,-11.719
1687428436.627,433.105,19.043,36.621,88.867,-12.695
1687428436.631,343.750,20.020,42.969,72.266,-16.602
1687428436.635,-166.016,18.066,35.645,-14.648,-23.926
1687428436.639,-395.996,20.996,42.480,-41.504,20.020
1687428436.643,-74.707,15.625,40.039,9.766,27.344
1687428436.647,410.156,8.301,33.203,80.566,34.180
1687428436.651,409.180,14.160,36.621,75.684,46.875
1687428436.655,-92.285,20.508,43.945,-6.836,25.879
1687428436.659,-395.996,21.484,47.363,-47.852,24.902
1687428436.662,-129.395,21.973,47.363,3.418,-6.836
1687428436.666,370.605,20.508,41.016,83.008,12.695
1687428436.670,448.730,21.973,32.227,89.355,108.398
1687428436.674,-26.367,24.414,35.156,13.184,78.125
1687428436.678,-387.695,24.414,41.992,-40.527,-24.414
1687428436.682,-179.199,22.461,41.504,-4.883,4.883
1687428436.686,318.359,20.020,41.016,78.125,62.012
1687428436.690,460.938,19.531,40.039,98.145,-7.812
1687428436.694,26.855,21.484,41.992,23.926,-1.953
1687428436.698,-382.324,21.973,51.270,-39.062,20.508
1687428436.702,-252.930,19.531,47.363,-12.207,41.016
1687428436.705,249.023,23.438,38.574,70.312,72.754
1687428436.709,485.352,26.855,37.598,100.098,59.570
1687428436.713,99.609,25.391,39.551,32.227,28.809
1687428436.717,-354.492,24.414,45.898,-41.504,-37.598
1687428436.721,-283.691,23.438,44.922,-21.973,-8.301
1687428436.725,200.684,19.043,38.086,56.152,39.551
1687428436.729,493.164,16.113,37.109,96.680,56.641
1687428436.733,169.922,18.555,44.922,43.945,47.852
1687428436.737,-318.848,18.555,48.340,-37.109,2.441
1687428436.741,-323.242,19.043,42.969,-37.109,-8.301
1687428436.744,130.859,19.531,39.551,41.504,20.508
1687428436.748,483.398,18.066,37.598,95.703,20.020
1687428436.752,229.004,22.461,38.086,49.316,20.996
1687428436.756,-279.297,26.855,38.086,-27.344,10.254
1687428436.760,-351.074,27.832,39.062,-27.832,25.879
1687428436.764,65.430,25.391,34.180,40.527,54.199
1687428436.768,472.656,28.320,27.344,103.516,11.719
1687428436.772,305.664,33.203,34.180,75.195,11.719
1687428436.776,-217.285,32.715,38.574,-6.348,47.363
1687428436.780,-371.094,32.715,36.621,-25.391,45.898
1687428436.783,7.812,34.180,40.527,37.109,40.039
1687428436.787,454.102,31.738,35.156,104.980,-6.348
1687428436.791,349.609,36.133,32.715,87.891,10.742
1687428436.795,-170.898,37.109,40.039,0.000,10.742
1687428436.799,-384.766,31.250,36.621,-34.180,-59.082
1687428436.803,-50.293,31.250,34.180,26.367,-13.672
1687428436.807,422.852,34.180,42.969,105.957,16.602
1687428436.811,401.367,35.156,44.922,99.121,11.230
1687428436.815,-97.656,30.273,38.574,10.254,-18.555
1687428436.819,-381.836,33.203,39.551,-33.203,-43.945
1687428436.823,-108.398,35.156,46.875,14.648,9.766
1687428436.826,379.395,30.273,41.992,90.820,19.043
1687428436.830,437.500,26.367,37.109,90.332,-9.766
1687428436.834,-46.875,28.320,38.574,7.812,1.953
1687428436.838,-400.879,28.809,35.156,-41.992,45.410
1687428436.842,-187.012,23.926,32.715,-3.418,51.270
1687428436.846,308.105,23.438,34.668,75.195,36.133
1687428436.850,450.684,26.855,33.203,91.309,-15.137
1687428436.854,8.789,28.320,29.785,19.531,-58.594
1687428436.858,-395.020,28.320,35.645,-31.250,-30.273
1687428436.862,-234.863,29.297,39.062,-5.371,14.648
1687428436.866,261.230,32.227,34.180,72.754,19.531
1687428436.869,472.656,35.156,36.621,107.910,49.316
1687428436.873,82.520,38.574,39.062,32.715,43.945
1687428436.877,-361.816,36.621,39.062,-36.621,10.742
1687428436.881,-277.344,35.156,39.551,-11.230,-1.953
1687428436.885,205.078,35.156,33.203,67.871,-35.645
1687428436.889,493.164,37.109,32.227,110.352,-3.418
1687428436.893,154.785,40.039,38.574,49.805,75.684
1687428436.897,-331.543,36.621,42.969,-25.879,26.855
1687428436.901,-308.594,33.203,44.434,-20.508,-11.230
1687428436.905,154.785,32.715,43.945,50.293,33.691
1687428436.909,496.094,32.715,40.039,100.098,17.578
1687428436.912,223.633,38.574,41.504,53.711,31.250
1687428436.916,-283.691,39.062,46.875,-18.066,2.441
1687428436.920,-331.055,34.180,42.480,-26.855,-20.996
1687428436.924,96.191,30.273,37.598,39.062,-7.812
1687428436.928,481.445,30.762,38.574,104.492,33.691
1687428436.932,283.691,33.203,38.574,65.430,39.062
1687428436.936,-241.699,32.227,38.086,-20.508,12.695
1687428436.940,-378.906,26.855,36.133,-37.109,-9.766
1687428436.944,13.184,26.855,35.156,27.832,-15.625
1687428436.948,446.777,28.809,34.180,96.191,64.453
1687428436.951,321.777,26.855,33.691,67.871,33.691
1687428436.955,-195.801,29.785,37.598,-15.625,-1.953
1687428436.959,-404.297,28.809,36.621,-42.969,29.297
1687428436.963,-67.871,27.832,34.668,10.742,51.270
1687428436.967,406.738,28.809,35.156,83.496,3.418
1687428436.971,361.816,30.762,37.598,70.801,-19.043
1687428436.975,-147.461,32.227,45.410,-9.766,24.414
1687428436.979,-415.039,29.297,41.016,-52.246,-32.227
1687428436.983,-125.488,25.391,35.645,-5.371,-6.836
1687428436.987,365.723,23.438,32.227,75.195,41.504
1687428436.991,403.320,26.367,28.809,74.707,-5.859
1687428436.994,-84.473,27.344,33.691,-3.418,-39.062
1687428436.998,-408.691,28.320,35.645,-47.363,25.879
1687428437.002,-178.223,27.832,41.504,-9.277,22.949
1687428437.006,320.801,27.344,34.180,67.383,3.418
1687428437.010,447.266,28.320,24.902,76.172,-6.348
1687428437.014,-4.395,28.320,29.785,1.465,-23.926
1687428437.018,-392.090,28.320,31.738,-50.781,24.414
1687428437.022,-227.051,26.855,31.250,-18.555,50.781
1687428437.026,271.484,23.926,32.227,60.059,58.105
1687428437.030,470.703,24.414,34.668,84.961,38.574
1687428437.034,70.801,27.832,34.668,21.973,44.922
1687428437.037,-364.746,27.344,29.785,-33.691,18.066
1687428437.041,-270.508,28.320,32.227,-10.254,15.137
1687428437.045,218.262,29.785,35.645,68.359,67.871
1687428437.049,481.445,30.762,37.598,106.445,62.012
1687428437.053,127.441,29.785,38.574,41.504,-42.969
1687428437.057,-345.215,24.902,40.527,-31.738,-27.344
1687428437.061,-322.266,22.949,46.387,-26.855,4.395
1687428437.065,147.949,22.949,44.922,47.363,-36.133
1687428437.069,484.863,22.461,37.109,96.191,27.832
1687428437.073,196.777,25.391,38.086,41.016,28.809
1687428437.076,-300.293,24.414,39.062,-34.180,-16.602
1687428437.080,-335.938,23.438,36.621,-36.133,-38.574
1687428437.084,101.074,25.879,33.203,31.250,-71.289
1687428437.088,483.887,27.344,29.297,93.262,-56.152
1687428437.092,268.066,29.297,33.203,60.547,7.324
1687428437.096,-247.559,29.785,38.574,-22.949,6.836
1687428437.100,-358.398,27.344,35.156,-41.992,-25.391
1687428437.104,39.062,25.391,26.855,21.973,25.391
1687428437.108,464.355,21.973,26.367,91.309,69.336
1687428437.112,325.684,22.949,31.250,64.453,54.688
1687428437.116,-191.406,25.391,34.180,-17.090,13.184
1687428437.119,-384.277,20.508,34.668,-35.156,-34.668
1687428437.123,-44.922,17.578,30.762,20.996,-51.758
1687428437.127,415.527,19.531,33.691,89.355,-30.762
1687428437.131,358.398,23.438,40.039,78.613,-27.344
1687428437.135,-157.227,21.484,43.945,-5.859,20.996
1687428437.139,-414.062,21.484,47.363,-43.945,51.270
1687428437.143,-107.910,23.438,41.992,5.371,18.066
1687428437.147,379.883,21.484,35.156,78.613,46.387
1687428437.151,396.484,21.973,38.086,76.660,22.949
1687428437.155,-90.332,23.438,40.527,0.000,20.508
1687428437.158,-402.344,20.508,42.480,-49.316,26.367
1687428437.162,-156.738,21.484,40.039,-5.859,20.996
1687428437.166,337.891,22.949,36.621,74.219,14.648
1687428437.170,435.547,22.949,37.598,87.891,21.484
1687428437.174,-16.602,27.344,39.551,17.090,24.414
1687428437.178,-384.766,29.785,43.945,-39.062,-35.645
1687428437.182,-212.402,25.879,45.410,-2.441,18.555
1687428437.186,284.668,27.344,41.992,75.684,37.109
1687428437.190,473.145,30.762,40.527,99.609,19.043
1687428437.194,57.617,29.785,40.527,37.109,-31.250
1687428437.198,-373.047,29.297,39.551,-29.785,10.742
1687428437.201,-262.207,26.367,40.039,-6.836,22.949
1687428437.205,227.539,23.438,39.551,68.848,13.184
1687428437.209,477.051,24.902,37.109,101.562,40.039
1687428437.213,110.840,23.438,34.180,39.551,1.465
1687428437.217,-353.516,20.996,34.668,-39.062,-38.086
1687428437.221,-306.152,21.484,32.715,-27.832,-22.949
1687428437.225,167.969,19.531,28.320,51.270,-38.086
1687428437.229,484.375,21.484,29.785,101.562,-34.668
1687428437.233,183.105,26.855,36.133,49.805,-11.230
1687428437.237,-306.152,27.344,39.551,-27.832,2.930
1687428437.241,-332.031,25.391,36.133,-26.855,0.977
1687428437.244,106.934,25.391,31.250,41.992,53.711
1687428437.248,488.281,27.344,26.367,103.516,63.477
1687428437.252,269.531,31.738,27.344,65.918,27.344
1687428437.256,-244.629,31.738,29.297,-14.648,25.879
1687428437.260,-343.262,27.832,29.297,-20.508,39.062
1687428437.264,68.359,26.367,31.738,40.039,26.367
1687428437.268,483.887,25.879,32.715,103.027,-24.902
1687428437.272,324.707,26.855,36.133,79.590,-5.859
1687428437.276,-192.871,27.832,40.039,-6.836,15.625
1687428437.280,-366.211,26.855,37.598,-27.832,42.969
1687428437.283,-7.324,23.438,35.645,30.762,22.949
1687428437.287,441.406,20.996,38.574,96.191,-14.160
1687428437.291,360.352,24.902,40.039,77.637,39.062
1687428437.295,-147.461,25.391,40.039,-2.441,74.219
1687428437.299,-388.672,19.531,40.039,-35.156,50.781
1687428437.303,-83.008,18.066,42.480,10.254,7.812
1687428437.307,397.949,19.043,39.551,86.914,69.824
1687428437.311,400.391,19.043,37.598,86.914,46.875
1687428437.315,-93.750,20.020,42.969,8.301,-1.953
1687428437.319,-394.043,21.484,45.898,-24.414,82.031
1687428437.323,-144.043,20.508,40.039,15.137,82.031
1687428437.326,349.121,19.531,35.156,85.938,2.441
1687428437.330,436.523,22.949,36.621,104.980,4.395
1687428437.334,-28.320,25.879,41.992,29.297,75.684
1687428437.338,-377.441,25.879,46.387,-27.344,92.285
1687428437.342,-178.223,30.273,46.387,4.883,48.828
1687428437.346,313.477,32.227,41.992,86.426,9.766
1687428437.350,480.957,32.227,39.062,116.211,2.441
1687428437.354,57.129,32.715,40.039,40.527,-48.340
1687428437.358,-361.816,29.297,38.086,-24.414,-20.508
1687428437.362,-239.258,29.785,35.156,-6.836,31.738
1687428437.366,251.465,29.297,35.645,71.777,44.922
1687428437.369,487.793,20.020,33.691,107.422,71.289
1687428437.373,112.305,20.996,31.738,37.598,32.715
1687428437.377,-341.309,24.902,28.809,-34.668,15.137
1687428437.381,-280.762,25.391,26.367,-29.785,32.227
1687428437.385,189.941,29.785,28.320,50.293,23.926
1687428437.389,495.117,31.738,26.855,100.586,1.465
1687428437.393,182.617,34.180,31.250,45.410,66.406
1687428437.397,-312.500,29.785,34.668,-30.273,60.059
1687428437.401,-317.383,24.414,34.668,-32.227,-50.293
1687428437.405,133.301,23.438,34.180,44.922,-61.035
1687428437.409,482.910,22.949,32.715,109.375,1.465
1687428437.412,232.910,24.902,37.598,62.012,-21.484
1687428437.416,-279.785,25.879,41.992,-22.949,-67.871
1687428437.420,-364.258,26.367,45.410,-33.203,-15.625
1687428437.424,40.527,25.879,46.875,34.668,31.250
1687428437.428,451.660,23.438,40.527,102.539,25.879
1687428437.432,291.992,28.809,37.109,73.242,36.621
1687428437.436,-229.004,30.762,38.574,-9.766,46.875
1687428437.440,-386.719,25.391,38.086,-35.645,55.176
1687428437.444,-11.230,28.320,38.574,27.832,35.645
1687428437.448,437.012,32.227,40.039,105.957,-4.883
1687428437.451,339.355,30.273,39.551,86.426,5.859
1687428437.455,-170.410,30.762,38.574,3.906,2.930
1687428437.459,-391.602,29.297,39.551,-33.203,20.508
1687428437.463,-72.754,31.250,45.898,15.625,1.465
1687428437.467,400.879,33.691,42.969,91.309,1.953
1687428437.471,379.883,28.320,38.574,82.520,43.457
1687428437.475,-114.258,27.344,40.039,-6.348,-13.672
1687428437.479,-394.043,26.855,41.504,-51.758,-45.410
1687428437.483,-130.371,25.879,41.504,-1.465,0.488
1687428437.487,361.328,28.809,39.551,77.637,21.484
1687428437.491,426.270,28.320,39.551,80.078,14.160
1687428437.494,-43.457,30.273,37.109,2.930,0.977
1687428437.498,-388.184,31.250,36.133,-49.316,27.832
1687428437.502,-185.059,27.832,37.109,-16.602,63.477
1687428437.506,308.594,30.273,30.762,64.453,47.852
1687428437.510,449.219,30.273,31.738,81.055,29.297
1687428437.514,11.719,28.320,34.180,9.766,1.465
1687428437.518,-387.207,29.297,30.273,-51.758,18.555
1687428437.522,-236.328,26.855,29.297,-26.855,-26.855
1687428437.526,255.371,22.949,28.320,65.430,10.254
1687428437.530,476.074,22.949,25.879,100.586,66.406
1687428437.533,92.285,27.344,26.367,33.203,11.719
1687428437.537,-354.004,26.855,29.785,-38.574,11.230
1687428437.541,-283.203,20.020,30.762,-20.508,2.930
1687428437.545,194.336,19.531,30.762,63.477,52.246
1687428437.549,486.328,24.414,34.180,104.980,38.574
1687428437.553,156.738,27.832,39.062,49.805,13.672
1687428437.557,-327.637,25.879,46.875,-25.391,66.406
1687428437.561,-318.359,24.902,48.340,-20.508,61.523
1687428437.565,145.020,28.320,44.922,61.035,-0.488
1687428437.569,495.605,26.367,41.504,111.328,-41.016
1687428437.572,231.445,28.809,40.039,62.500,-18.555
1687428437.576,-268.555,34.668,44.434,-15.625,67.871
1687428437.580,-329.102,35.645,42.480,-26.855,61.035
1687428437.584,84.473,34.668,33.691,42.969,-11.230
1687428437.588,478.027,35.645,30.762,100.098,41.504
1687428437.592,291.992,37.598,30.273,57.129,66.895
1687428437.596,-228.516,38.574,34.180,-32.227,-12.695
1687428437.600,-369.629,37.598,37.109,-51.270,-5.371
1687428437.604,17.090,38.574,32.227,18.066,30.762
1687428437.608,454.590,36.621,31.738,88.867,32.715
1687428437.612,344.727,37.109,32.227,69.824,6.836
1687428437.615,-164.062,40.039,30.762,-20.508,-10.742
1687428437.619,-382.324,35.156,30.762,-54.688,4.883
1687428437.623,-50.781,36.133,30.273,9.766,8.789
1687428437.627,418.945,36.621,25.879,84.473,-20.020
1687428437.631,379.395,34.180,24.902,81.543,13.672
1687428437.635,-123.047,33.691,30.273,-0.977,66.406
1687428437.639,-399.414,30.273,33.691,-45.410,30.762
1687428437.643,-121.582,29.785,35.156,7.812,7.324
1687428437.647,360.352,28.809,34.180,83.984,48.828
1687428437.651,404.785,26.367,33.691,87.402,65.918
1687428437.655,-66.895,28.320,38.574,7.324,51.270
1687428437.658,-398.926,27.344,41.992,-41.992,-14.648
1687428437.662,-186.035,21.484,41.016,-0.488,-30.273
1687428437.666,304.199,20.020,39.551,70.312,19.043
1687428437.670,434.082,23.926,35.645,82.520,36.621
1687428437.674,-10.742,24.902,36.621,5.371,14.648
1687428437.678,-400.391,27.832,39.551,-56.152,5.371
1687428437.682,-243.652,33.691,35.645,-27.344,-1.465
1687428437.686,249.512,33.203,34.180,43.945,-9.766
1687428437.690,456.543,30.273,34.180,75.195,-20.996
1687428437.694,61.035,32.227,37.109,11.230,11.719
1687428437.698,-374.512,31.250,38.574,-54.199,24.902
1687428437.701,-287.109,29.297,35.645,-28.809,-17.090
1687428437.705,194.824,31.738,33.691,50.781,-32.227
1687428437.709,466.797,34.180,31.250,96.680,49.805
1687428437.713,134.766,38.086,33.691,41.016,48.828
1687428437.717,-326.172,39.551,34.668,-28.320,-2.441
1687428437.721,-308.594,38.086,37.598,-17.578,11.719
1687428437.725,147.461,38.574,39.062,54.199,32.715
1687428437.729,483.887,37.109,33.203,103.027,6.348
1687428437.733,217.285,41.016,31.738,53.223,16.602
1687428437.737,-281.250,43.457,34.668,-29.297,7.324
1687428437.740,-337.402,39.551,34.668,-33.203,0.977
1687428437.744,81.543,35.645,34.668,32.227,0.488
1687428437.748,470.703,39.062,27.344,89.355,-54.199
1687428437.752,273.926,41.992,27.344,53.711,31.250
1687428437.756,-243.164,41.992,36.133,-30.273,17.578
1687428437.760,-359.375,41.016,36.133,-40.527,-62.988
1687428437.764,30.273,40.527,36.621,25.879,-19.043
1687428437.768,450.195,33.203,38.086,93.750,2.441
1687428437.772,324.707,29.297,41.016,70.312,11.230
1687428437.776,-189.453,31.250,43.945,-17.578,29.785
1687428437.780,-385.742,28.809,42.480,-40.039,44.434
1687428437.783,-40.039,26.367,42.969,20.020,28.809
1687428437.787,423.828,22.461,43.945,97.656,-24.414
1687428437.791,376.953,22.461,45.898,87.891,-55.176
1687428437.795,-125.000,26.367,52.246,7.812,-32.227
1687428437.799,-396.484,23.926,48.828,-19.531,47.363
1687428437.803,-115.234,20.508,43.457,22.949,43.457
1687428437.807,375.000,19.043,43.457,97.656,71.289
1687428437.811,412.109,21.484,43.945,103.516,68.359
1687428437.815,-59.082,24.902,47.852,21.484,12.207
1687428437.819,-376.953,24.414,49.316,-23.926,5.371
1687428437.823,-150.879,24.902,48.340,18.066,-32.227
1687428437.826,342.285,27.832,42.969,97.168,-17.090
1687428437.830,455.566,33.691,37.598,103.516,0.488
1687428437.834,6.836,38.086,38.086,18.555,-30.273
1687428437.838,-377.441,39.062,37.109,-38.574,-90.820
1687428437.842,-216.309,36.621,36.621,-12.695,-64.941
1687428437.846,277.832,36.621,31.250,61.523,53.711
1687428437.850,468.262,42.480,26.855,82.520,105.957
1687428437.854,62.500,42.480,34.668,8.789,41.016
1687428437.858,-362.793,36.621,33.203,-50.781,10.254
1687428437.862,-261.230,34.668,27.832,-24.902,-0.977
1687428437.865,221.191,33.691,29.785,56.152,-7.812
1687428437.869,485.840,31.250,33.691,98.633,52.246
1687428437.873,139.648,32.715,36.133,39.062,31.738
1687428437.877,-326.660,30.762,35.645,-28.809,5.859
1687428437.881,-289.551,28.809,38.574,-12.207,17.578
1687428437.885,172.363,27.832,39.062,64.453,5.859
1687428437.889,487.793,23.438,40.527,112.305,-1.465
1687428437.893,198.730,23.926,46.387,60.059,17.578
1687428437.897,-286.133,25.391,43.945,-14.648,54.199
1687428437.901,-326.660,23.926,41.992,-20.508,25.879
1687428437.904,97.656,21.973,41.992,43.945,-3.418
1687428437.908,475.586,21.484,41.016,104.004,111.328
1687428437.912,261.230,20.020,42.480,64.453,74.707
1687428437.916,-252.930,20.508,46.387,-20.020,-14.648
1687428437.920,-365.723,20.996,47.852,-36.621,-15.137
1687428437.924,33.203,24.414,45.898,22.461,19.531
1687428437.928,451.172,24.902,43.457,83.496,39.062
1687428437.932,306.152,25.879,42.969,56.641,29.297
1687428437.936,-206.055,31.250,43.945,-32.227,6.348
1687428437.940,-379.395,32.715,39.062,-58.594,-3.906
1687428437.944,-25.391,32.715,36.133,9.766,19.043
1687428437.947,431.641,35.645,34.668,85.938,-6.836
1687428437.951,370.117,35.645,30.273,69.824,-2.441
1687428437.955,-139.648,33.203,29.785,-12.207,76.172
1687428437.959,-383.789,31.250,31.250,-46.875,-6.348
1687428437.963,-82.520,27.832,32.715,6.836,-85.938
1687428437.967,393.066,24.902,31.250,87.402,-43.457
1687428437.971,411.133,24.902,33.203,82.520,36.621
1687428437.975,-71.289,27.344,40.527,6.348,26.367
1687428437.979,-383.789,23.438,40.527,-30.762,-14.648
1687428437.983,-143.066,19.531,37.598,6.348,-17.090
1687428437.987,349.121,21.484,36.133,85.449,-21.973
1687428437.990,445.801,20.508,40.039,101.562,-15.625
1687428437.994,-12.695,24.414,46.387,28.320,-15.137
1687428437.998,-373.535,23.438,47.363,-24.902,-24.902
1687428438.002,-186.523,21.973,48.340,7.812,-30.273
1687428438.006,298.828,24.902,48.340,88.379,3.418
1687428438.010,468.262,23.926,45.898,111.816,44.434
1687428438.014,57.617,25.391,47.363,36.133,4.395
1687428438.018,-359.863,25.879,50.781,-24.414,-56.641
1687428438.022,-252.441,25.391,46.875,-3.906,-20.020
1687428438.026,223.633,21.484,42.969,71.777,22.949
1687428438.029,470.215,21.973,44.922,110.840,42.969
1687428438.033,117.188,27.832,50.293,50.781,7.812
1687428438.037,-341.309,27.344,54.199,-18.555,16.113
1687428438.041,-300.781,22.949,51.758,-10.742,94.727
1687428438.045,166.016,21.973,47.363,59.082,46.875
1687428438.049,483.887,21.973,46.387,105.957,18.066
1687428438.053,190.430,26.367,43.945,54.688,24.902
1687428438.057,-297.363,22.461,44.922,-27.344,-8.301
1687428438.061,-318.848,20.996,42.480,-24.414,10.742
1687428438.065,119.141,23.438,39.551,44.922,-16.113
1687428438.069,482.422,21.484,36.621,93.750,-0.977
1687428438.072,249.512,22.461,39.551,54.199,67.871
1687428438.076,-254.883,23.438,42.969,-32.227,57.129
1687428438.080,-346.191,25.391,39.062,-39.551,-20.996
1687428438.084,41.504,22.949,38.086,28.809,-2.441
1687428438.088,448.242,16.602,34.180,83.496,50.781
1687428438.092,302.246,19.531,35.156,57.617,8.789
1687428438.096,-213.867,20.508,43.945,-22.949,27.832
1687428438.100,-389.160,18.066,45.410,-48.340,31.738
1687428438.104,-30.762,19.531,42.480,14.648,32.227
1687428438.108,423.340,19.043,40.527,90.332,26.855
1687428438.112,346.680,20.996,41.504,77.148,-8.301
1687428438.115,-156.250,22.949,43.457,-3.418,36.621
1687428438.119,-389.160,20.996,45.410,-30.762,94.238
1687428438.123,-74.219,19.531,46.875,27.832,62.988
1687428438.127,401.367,20.020,46.875,104.492,87.891
1687428438.131,399.902,24.414,46.875,101.562,70.312
1687428438.135,-75.684,25.879,47.852,19.043,32.715
1687428438.139,-374.023,23.926,47.852,-23.438,-22.461
1687428438.143,-127.441,22.461,48.828,23.926,-36.621
1687428438.147,359.375,20.508,47.852,94.727,-38.574
1687428438.151,442.383,25.391,45.410,101.562,-35.645
1687428438.155,-14.648,30.762,46.875,26.367,26.367
1687428438.158,-375.000,31.738,46.387,-30.762,57.617
1687428438.162,-191.406,33.203,41.504,-0.977,51.270
1687428438.166,297.363,31.250,35.645,73.242,8.301
1687428438.170,463.867,29.297,36.133,98.633,34.180
1687428438.174,45.410,33.691,41.504,29.297,48.828
1687428438.178,-366.211,33.691,41.992,-37.598,-21.484
1687428438.182,-242.188,29.785,36.133,-14.160,-11.719
1687428438.186,241.211,31.250,32.715,65.918,62.500
1687428438.190,471.680,34.180,33.203,96.680,45.410
1687428438.194,98.145,32.715,32.227,24.902,-34.668
1687428438.197,-356.445,31.250,33.691,-48.340,-33.203
1687428438.201,-298.340,30.762,34.180,-32.715,38.574
1687428438.205,169.434,29.785,29.297,44.434,55.176
1687428438.209,469.238,31.250,29.297,89.355,11.230
1687428438.213,161.133,31.250,32.715,34.180,-7.812
1687428438.217,-326.660,25.879,30.762,-45.898,-10.254
1687428438.221,-341.797,25.391,33.691,-47.363,-2.930
1687428438.225,104.004,24.414,33.203,29.297,-0.977
1687428438.229,458.496,21.973,32.715,90.332,34.668
1687428438.233,215.332,25.391,36.621,46.875,29.785
1687428438.236,-282.227,23.926,37.598,-32.715,-10.254
1687428438.240,-359.863,18.555,36.621,-44.434,28.320
1687428438.244,39.551,16.113,33.691,19.043,32.227
1687428438.248,446.777,18.555,35.156,88.867,-10.254
1687428438.252,288.574,22.949,35.645,64.941,7.324
1687428438.256,-218.262,21.484,36.133,-17.578,-17.090
1687428438.260,-370.605,18.555,40.039,-29.785,-8.789
1687428438.264,-8.301,19.043,41.016,28.809,29.785
1687428438.268,431.152,20.508,40.039,97.656,27.344
1687428438.272,343.750,23.438,36.133,85.449,29.785
1687428438.276,-160.156,27.832,35.156,-2.441,24.902
1687428438.279,-381.836,30.273,41.504,-37.598,59.082
1687428438.283,-62.500,30.273,39.062,14.648,15.137
1687428438.287,405.273,28.809,34.668,85.449,-48.340
1687428438.291,389.160,28.320,37.598,83.008,-27.832
1687428438.295,-103.027,30.762,38.574,1.465,22.949
1687428438.299,-390.625,31.738,35.645,-49.316,22.949
1687428438.303,-126.953,33.691,35.156,-4.395,21.973
1687428438.307,354.980,29.785,36.133,76.660,22.461
1687428438.311,412.109,28.809,35.156,82.520,34.180
1687428438.315,-47.852,34.180,35.645,1.953,-26.367
1687428438.318,-387.695,34.668,36.621,-44.434,-4.395
1687428438.322,-189.453,33.691,36.133,-11.230,81.055
1687428438.326,305.664,34.180,35.645,67.871,33.203
1687428438.330,451.660,36.621,37.598,91.797,13.184
1687428438.334,29.297,36.621,40.527,17.578,58.105
1687428438.338,-364.746,35.645,44.922,-39.062,39.551
1687428438.342,-230.469,36.133,41.992,-14.160,-22.949
1687428438.346,262.695,34.180,34.668,65.430,-11.230
1687428438.350,484.375,33.203,37.109,102.539,40.039
1687428438.354,100.586,36.133,41.504,35.156,21.973
1687428438.358,-343.750,34.668,42.969,-37.109,-27.832
1687428438.361,-264.160,30.273,37.598,-21.973,-27.344
1687428438.365,206.055,32.227,33.691,57.129,0.488
1687428438.369,486.328,31.738,36.621,99.609,16.602
1687428438.373,169.922,34.180,33.203,38.086,13.672
1687428438.377,-303.711,41.016,33.691,-38.086,29.297
1687428438.381,-304.688,38.574,38.086,-32.227,52.734
1687428438.385,133.301,36.133,34.668,40.039,33.203
1687428438.389,478.027,38.086,30.273,97.168,33.691
1687428438.393,221.680,39.551,30.273,45.898,27.832
1687428438.397,-276.855,40.527,37.109,-38.086,-3.906
1687428438.401,-347.168,31.250,39.551,-41.016,-6.836
1687428438.404,69.336,26.855,40.039,29.785,20.996
1687428438.408,468.750,26.855,38.086,91.797,13.184
1687428438.412,275.391,27.344,37.598,60.547,17.578
1687428438.416,-235.352,29.785,43.457,-20.020,20.996
1687428438.420,-369.629,29.297,46.387,-40.527,-40.039
1687428438.424,3.418,34.668,41.504,28.809,-31.738
1687428438.428,433.105,39.062,37.598,102.539,-13.184
1687428438.432,321.289,38.086,41.504,76.172,-48.828
1687428438.436,-181.641,38.574,41.992,-11.719,-4.395
1687428438.440,-389.160,35.645,40.039,-45.410,50.781
1687428438.444,-65.918,31.738,37.598,8.301,28.809
1687428438.447,403.320,29.297,37.109,83.008,25.879
1687428438.451,375.977,29.297,40.039,72.754,49.805
1687428438.455,-117.188,35.645,41.504,-13.672,58.594
1687428438.459,-391.113,36.621,44.434,-55.176,12.207
1687428438.463,-119.629,35.645,42.480,-7.324,15.625
1687428438.467,366.211,36.621,37.109,68.359,17.090
1687428438.471,416.992,30.762,37.109,77.637,9.277
1687428438.475,-50.781,28.809,37.109,-1.953,31.738
1687428438.479,-383.789,31.250,38.574,-54.688,-29.297
1687428438.483,-174.805,27.832,37.109,-11.230,-103.027
1687428438.486,315.918,25.391,37.598,75.195,-98.633
1687428438.490,448.242,30.762,45.898,97.656,-67.383
1687428438.494,18.066,36.621,50.781,28.320,11.230
1687428438.498,-363.770,38.574,55.176,-29.297,4.395
1687428438.502,-214.844,40.527,62.500,1.465,-41.992
1687428438.506,264.648,44.434,47.852,76.172,19.531
1687428438.510,460.938,38.086,37.109,92.773,-17.578
1687428438.514,65.430,25.879,47.852,31.738,-22.461
1687428438.518,-374.023,24.414,56.152,-37.598,43.457
1687428438.522,-302.246,40.039,44.922,-39.551,30.762
1687428438.526,175.293,40.039,37.598,36.133,29.785
1687428438.529,443.848,21.484,48.340,79.102,57.617
1687428438.533,81.543,22.949,63.965,-4.883,49.805
1687428438.537,-407.227,36.621,65.918,-110.840,22.949
1687428438.541,-410.156,39.551,62.988,-124.023,5.371
1687428438.545,21.484,35.645,68.848,-65.430,2.441
1687428438.549,350.098,48.828,83.496,-19.531,30.273
1687428438.553,70.801,55.176,90.332,-87.402,47.363
1687428438.557,-428.711,54.199,89.355,-182.129,-26.855
1687428438.561,-483.398,57.129,90.332,-188.965,-36.621
1687428438.565,-66.406,59.570,97.168,-116.699,40.527
1687428438.569,322.754,59.570,92.773,-50.293,79.102
1687428438.572,137.207,62.988,86.426,-75.195,64.941
1687428438.576,-364.746,61.523,84.961,-152.344,67.871
1687428438.580,-468.750,60.547,81.543,-157.227,13.672
1687428438.584,-59.570,61.523,73.730,-62.500,-30.762
1687428438.588,372.559,52.246,58.105,27.344,14.160
1687428438.592,270.020,45.898,51.758,27.832,55.176
1687428438.596,-214.355,43.945,50.781,-41.016,50.293
1687428438.600,-390.625,35.645,40.039,-57.617,0.488
1687428438.604,-37.598,35.156,29.785,20.508,10.254
1687428438.608,426.758,36.621,23.926,102.539,5.371
1687428438.611,393.066,33.203,23.438,105.957,0.000
1687428438.615,-95.703,29.785,30.273,34.180,6.348
1687428438.619,-355.469,26.367,27.832,4.883,-19.531
1687428438.623,-71.777,22.949,20.508,60.547,24.902
1687428438.627,413.574,19.043,15.137,140.625,47.363
1687428438.631,456.055,14.648,14.648,148.438,86.426
1687428438.635,-8.301,12.695,14.648,71.777,62.012
1687428438.639,-323.242,15.137,20.508,28.809,-29.297
1687428438.643,-96.191,14.160,21.973,68.359,-46.875
1687428438.647,398.438,13.184,15.137,141.113,-6.836
1687428438.650,515.137,14.648,16.602,157.227,57.129
1687428438.654,73.242,14.648,18.066,76.172,89.355
1687428438.658,-310.547,15.137,20.020,14.648,19.531
1687428438.662,-153.320,13.184,20.508,44.434,-34.180
1687428438.666,327.148,9.277,12.207,120.117,17.578
1687428438.670,515.137,8.789,11.719,143.555,23.438
1687428438.674,121.582,14.648,18.555,66.406,66.406
1687428438.678,-300.293,18.066,16.602,3.906,75.195
1687428438.682,-211.914,16.602,11.719,25.391,-42.969
1687428438.686,261.230,13.672,15.137,101.562,-47.852
1687428438.690,524.414,16.602,18.066,139.648,43.945
1687428438.693,176.758,16.113,23.438,72.266,44.922
1687428438.697,-286.621,14.648,29.785,0.000,-18.555
1687428438.701,-257.812,18.555,28.320,13.184,-50.293
1687428438.705,197.754,15.625,26.367,90.820,23.438
1687428438.709,518.066,14.160,26.855,143.555,41.016
1687428438.713,241.211,20.020,28.809,89.844,-30.762
1687428438.717,-246.094,21.973,31.250,12.695,-52.246
1687428438.721,-277.344,23.926,28.809,16.602,-25.391
1687428438.725,150.391,28.320,20.508,85.449,4.883
1687428438.729,511.719,25.879,18.066,140.625,20.020
1687428438.733,301.270,24.414,23.438,96.191,59.082
1687428438.736,-199.707,22.949,30.762,10.254,17.090
1687428438.740,-317.383,19.043,32.715,0.977,-5.371
1687428438.744,56.641,21.973,26.367,59.570,41.504
1687428438.748,471.680,21.973,22.461,122.070,11.719
1687428438.752,337.891,23.926,27.832,92.285,15.137
1687428438.756,-180.176,28.809,35.156,-1.953,-3.418
1687428438.760,-363.281,21.973,37.109,-23.438,-58.105
1687428438.764,-17.578,21.973,32.227,33.691,-16.602
1687428438.768,426.758,23.926,32.227,103.027,-6.836
1687428438.772,361.816,23.926,34.668,88.379,14.648
1687428438.776,-138.184,27.832,35.645,2.441,-11.230
1687428438.779,-382.324,25.879,39.062,-28.320,-54.688
1687428438.783,-88.867,23.438,34.668,21.973,23.438
1687428438.787,375.000,23.438,27.344,98.145,20.508
1687428438.791,391.602,23.926,31.738,94.238,7.812
1687428438.795,-77.637,27.344,41.016,13.184,-0.488
1687428438.799,-381.836,24.902,41.992,-26.367,-32.227
1687428438.803,-147.461,22.949,37.598,13.184,-63.965
1687428438.807,339.844,23.926,34.180,94.238,-18.555
1687428438.811,441.895,22.461,32.715,102.051,47.852
1687428438.815,-3.418,26.855,39.062,26.367,43.457
1687428438.818,-364.746,27.832,41.992,-20.508,19.531
1687428438.822,-193.848,21.973,37.598,5.859,-23.926
1687428438.826,290.039,23.926,34.180,84.961,15.137
1687428438.830,467.285,25.879,31.250,102.051,50.293
1687428438.834,60.547,23.438,34.180,23.926,-25.879
1687428438.838,-347.656,25.879,33.203,-37.598,-70.312
1687428438.842,-239.258,27.344,30.273,-20.508,-32.227
1687428438.846,233.398,24.902,26.855,56.152,-21.484
1687428438.850,479.492,26.367,28.809,90.332,-13.672
1687428438.854,125.000,26.855,34.668,24.414,-30.762
1687428438.858,-329.590,26.367,32.715,-39.551,-21.484
1687428438.861,-290.039,26.367,28.320,-26.855,47.363
1687428438.865,167.969,30.273,25.879,47.363,44.922
1687428438.869,478.027,29.785,24.414,92.773,103.027
1687428438.873,186.523,20.020,29.785,37.598,55.664
1687428438.877,-304.688,19.043,32.715,-36.133,-34.668
1687428438.881,-334.473,20.508,30.762,-31.738,3.906
1687428438.885,101.562,19.043,28.809,42.480,8.789
1687428438.889,466.797,20.508,27.344,91.797,0.488
1687428438.893,250.977,24.902,28.809,48.828,10.254
1687428438.897,-249.023,25.391,35.156,-23.926,22.949
1687428438.901,-347.168,27.832,31.250,-32.227,4.883
1687428438.904,51.270,28.809,23.926,38.086,29.785
1687428438.908,459.961,25.879,27.344,96.191,81.543
1687428438.912,315.918,25.391,27.344,60.059,71.289
1687428438.916,-190.918,24.902,30.762,-15.137,67.383
1687428438.920,-362.793,24.414,36.133,-35.156,55.176
1687428438.924,-20.020,26.367,36.621,21.973,71.777
1687428438.928,428.711,26.855,34.180,89.844,90.820
1687428438.932,368.164,27.832,29.297,71.777,51.758
1687428438.936,-134.766,28.809,34.180,-2.441,41.992
1687428438.940,-375.000,27.832,32.227,-34.180,5.859
1687428438.943,-77.637,27.344,27.344,16.602,-32.227
1687428438.947,397.949,27.832,30.762,87.891,38.086
1687428438.951,405.273,30.273,30.273,79.590,47.363
1687428438.955,-83.008,28.320,31.738,0.488,21.484
1687428438.959,-380.371,25.879,32.227,-42.969,-0.488
1687428438.963,-135.254,27.344,27.344,1.953,-2.930
1687428438.967,343.262,25.879,26.855,78.613,38.574
1687428438.971,431.152,26.367,32.715,94.238,62.988
1687428438.975,-17.090,28.320,39.551,21.484,-9.277
1687428438.979,-371.094,28.809,44.922,-33.691,-27.832
1687428438.982,-191.406,24.902,46.387,2.441,39.062
1687428438.986,292.969,23.438,40.527,74.707,17.090
1687428438.990,463.867,27.344,36.621,100.098,57.129
1687428438.994,54.199,26.367,37.598,35.645,98.145
1687428438.998,-355.957,27.344,37.109,-37.109,-13.184
1687428439.002,-236.816,27.832,39.551,-15.137,-45.410
1687428439.006,241.699,25.391,36.621,66.406,27.344
1687428439.010,473.633,23.438,32.227,100.586,69.824
1687428439.014,102.051,24.902,34.668,36.133,65.430
1687428439.018,-346.680,23.926,35.645,-35.645,-20.508
1687428439.022,-282.227,20.996,30.762,-22.949,-13.672
1687428439.025,180.664,19.531,26.367,48.340,18.066
1687428439.029,473.145,22.461,26.855,97.656,12.695
1687428439.033,174.805,24.902,29.785,50.781,-0.488
1687428439.037,-305.176,22.949,30.273,-33.691,-36.621
1687428439.041,-323.730,21.484,30.273,-29.297,-38.086
1687428439.045,112.793,19.531,32.715,45.410,-46.387
1687428439.049,468.262,18.555,32.227,96.680,-0.488
1687428439.053,233.398,20.020,37.109,62.500,40.039
1687428439.057,-269.043,21.484,40.527,-12.207,2.930
1687428439.061,-354.980,18.555,35.156,-27.832,22.949
1687428439.065,51.758,15.625,31.250,35.156,38.574
1687428439.068,452.637,17.578,31.738,103.027,64.453
1687428439.072,291.504,20.508,35.645,73.242,-8.789
1687428439.076,-212.891,24.902,40.039,-15.137,-102.539
1687428439.080,-370.117,19.043,40.039,-33.203,-21.973
1687428439.084,-10.254,18.555,35.156,25.391,57.129
1687428439.088,425.293,20.996,32.715,88.867,16.113
1687428439.092,343.750,20.508,35.645,78.125,49.316
1687428439.096,-150.879,23.926,39.062,-0.977,42.969
1687428439.100,-381.836,22.949,43.945,-38.086,26.367
1687428439.104,-76.660,21.484,39.062,11.230,40.527
1687428439.107,393.066,19.531,35.156,87.891,34.180
1687428439.111,389.160,20.508,35.156,83.984,-13.184
1687428439.115,-90.332,21.973,33.691,0.977,-46.875
1687428439.119,-385.254,17.578,37.598,-36.133,-13.672
1687428439.123,-134.277,17.578,41.504,5.859,-27.344
1687428439.127,351.562,17.090,37.598,81.055,-13.672
1687428439.131,419.922,16.113,31.250,96.191,32.715
1687428439.135,-37.598,21.973,33.691,15.625,12.207
1687428439.139,-376.465,24.414,41.016,-38.086,-26.855
1687428439.143,-185.059,21.973,38.574,-2.930,-5.371
1687428439.147,294.922,20.508,31.250,78.125,2.441
1687428439.150,445.801,21.973,30.762,104.004,7.324
1687428439.154,31.738,21.484,28.809,29.785,23.438
1687428439.158,-361.328,26.855,27.344,-33.691,47.852
1687428439.162,-233.398,28.809,30.273,-9.766,60.547
1687428439.166,248.535,28.320,30.273,66.406,33.691
1687428439.170,483.398,30.762,27.344,101.562,69.336
1687428439.174,117.676,30.273,33.203,39.551,52.734
1687428439.178,-319.824,28.320,35.156,-26.367,-8.301
1687428439.182,-257.324,29.297,36.621,-12.695,20.020
1687428439.186,207.031,30.762,38.086,69.824,58.594
1687428439.190,499.023,28.320,29.785,115.723,9.766
1687428439.193,187.988,25.879,29.785,53.223,-44.922
1687428439.197,-286.133,23.926,33.691,-18.066,-34.668
1687428439.201,-297.852,23.926,34.180,-10.742,18.555
1687428439.205,134.766,20.996,31.738,52.734,22.461
1687428439.209,475.098,20.020,30.762,104.004,41.016
1687428439.213,228.516,21.484,32.715,59.082,48.828
1687428439.217,-262.695,22.461,32.227,-23.926,3.906
1687428439.221,-339.844,22.461,31.738,-30.762,14.160
1687428439.225,62.500,22.461,31.250,36.133,1.953
1687428439.229,452.637,21.484,27.832,97.656,52.246
1687428439.233,272.461,20.508,29.785,59.082,100.586
1687428439.236,-234.863,25.391,35.645,-27.344,45.898
1687428439.240,-382.324,25.879,31.250,-44.922,48.828
1687428439.244,-21.973,25.879,21.484,12.207,65.918
1687428439.248,416.504,25.391,21.973,79.590,58.105
1687428439.252,325.195,19.531,24.902,60.547,46.387
1687428439.256,-175.293,18.066,26.855,-18.555,66.895
1687428439.260,-381.348,19.043,31.250,-46.387,42.480
1687428439.264,-63.477,18.066,26.855,10.254,9.277
1687428439.268,397.949,17.090,21.973,94.727,-18.066
1687428439.272,383.301,17.578,27.832,94.727,-24.414
1687428439.275,-101.074,18.555,34.668,15.137,-21.973
1687428439.279,-381.836,19.531,34.668,-25.879,-26.367
1687428439.283,-116.211,20.020,35.156,20.508,-2.441
1687428439.287,369.141,17.090,37.109,102.539,20.020
1687428439.291,429.199,17.090,34.668,109.375,46.875
1687428439.295,-33.203,21.973,33.691,25.391,17.090
1687428439.299,-374.023,19.531,40.527,-29.297,15.137
1687428439.303,-169.434,19.043,41.504,4.883,31.738
1687428439.307,320.801,20.020,36.133,81.055,52.246
1687428439.311,454.102,18.066,35.156,101.562,11.719
1687428439.314,26.855,21.973,33.203,23.438,-32.715
1687428439.318,-365.723,20.996,35.156,-46.387,-5.859
1687428439.322,-226.562,17.090,38.086,-22.949,-0.488
1687428439.326,250.488,20.996,35.156,60.059,45.898
1687428439.330,457.031,21.484,34.180,91.309,34.668
1687428439.334,81.543,21.484,35.156,17.090,-19.043
1687428439.338,-349.121,25.391,37.109,-51.758,-10.254
1687428439.342,-275.879,28.809,37.109,-33.691,9.277
1687428439.346,190.430,26.855,31.250,50.293,11.230
1687428439.350,471.191,25.879,24.902,90.332,14.648
1687428439.354,148.438,31.738,28.809,25.391,-7.324
1687428439.357,-320.312,32.227,32.227,-47.363,-58.105
1687428439.361,-312.500,29.785,34.668,-37.109,-39.551
1687428439.365,129.395,31.738,34.668,42.969,20.996
1687428439.369,469.727,26.855,34.668,97.656,13.672
1687428439.373,216.797,27.832,38.086,54.199,-25.879
1687428439.377,-267.090,29.297,43.457,-18.555,-33.691
1687428439.381,-323.730,27.344,41.016,-21.484,-12.207
1687428439.385,84.961,25.391,33.203,53.223,5.859
1687428439.389,469.238,21.484,35.645,117.188,10.742
1687428439.393,287.598,23.926,42.480,78.125,9.277
1687428439.397,-214.844,28.320,42.480,-7.324,45.898
1687428439.400,-351.074,26.367,45.410,-24.902,48.828
1687428439.404,17.090,24.902,42.969,38.574,32.227
1687428439.408,445.312,29.297,33.203,102.051,15.625
1687428439.412,338.379,27.832,31.250,82.031,21.484
1687428439.416,-168.457,27.344,41.016,0.977,-3.418
1687428439.420,-366.699,27.832,45.898,-27.344,28.809
1687428439.424,-39.062,23.926,43.945,28.320,25.391
1687428439.428,416.992,20.996,37.109,102.539,-39.062
1687428439.432,378.906,19.043,35.156,101.074,-4.395
1687428439.436,-110.840,20.996,40.039,14.648,0.000
1687428439.439,-375.488,20.020,41.992,-33.203,-3.418
1687428439.443,-104.980,17.578,41.016,15.137,-18.066
1687428439.447,369.629,21.484,43.457,91.309,15.137
1687428439.451,412.109,21.973,44.922,96.680,47.852
1687428439.455,-53.711,22.949,37.598,9.766,-23.438
1687428439.459,-384.277,20.996,35.645,-46.387,-13.184
1687428439.463,-169.922,19.043,38.086,-4.883,18.066
1687428439.467,313.965,20.020,36.133,71.289,-10.254
1687428439.471,435.059,21.484,32.227,84.473,48.340
1687428439.475,3.906,22.949,36.621,8.301,86.914
1687428439.479,-375.977,18.555,41.504,-44.922,38.574
1687428439.482,-225.098,17.090,41.016,-14.160,-6.348
1687428439.486,260.254,20.996,41.016,63.477,3.418
1687428439.490,464.355,22.461,39.551,92.773,-24.414
1687428439.494,78.125,20.996,34.668,25.879,-61.035
1687428439.498,-340.820,22.461,36.133,-39.551,-12.695
1687428439.502,-247.559,24.414,37.109,-19.531,-15.137
1687428439.506,217.773,26.367,37.109,58.594,15.625
1687428439.510,482.910,26.855,33.691,94.238,23.926
1687428439.514,155.273,28.809,33.691,32.715,41.016
1687428439.518,-311.035,28.320,41.016,-40.527,48.340
1687428439.522,-295.898,25.879,41.016,-30.273,25.879
1687428439.525,143.066,23.438,37.109,46.387,58.105
1687428439.529,462.402,24.902,37.109,94.238,19.531
1687428439.533,196.289,26.855,38.574,41.992,35.645
1687428439.537,-292.480,26.855,42.480,-36.621,55.664
1687428439.541,-343.750,21.973,41.504,-38.574,-13.672
1687428439.545,76.172,17.578,36.133,29.785,-27.344
1687428439.549,451.172,19.531,35.156,88.379,-7.812
1687428439.553,250.977,20.020,38.574,49.316,51.270
1687428439.557,-248.535,19.043,37.109,-35.156,25.391
1687428439.561,-365.723,20.508,35.156,-47.363,-33.203
1687428439.564,9.277,20.020,33.691,18.066,6.348
1687428439.568,424.805,19.531,31.738,86.914,12.207
1687428439.572,302.246,22.461,34.180,67.871,-25.391
1687428439.576,-195.801,23.926,38.086,-15.137,50.293
1687428439.580,-379.395,21.484,40.527,-44.434,53.711
1687428439.584,-45.410,20.996,39.551,14.160,31.250
1687428439.588,415.527,22.461,39.551,92.773,38.574
1687428439.592,381.836,26.855,40.039,85.938,28.809
1687428439.596,-104.492,24.902,47.363,9.766,42.480
1687428439.600,-356.445,19.043,49.805,-19.043,21.973
1687428439.604,-79.102,21.973,38.086,28.809,15.625
1687428439.607,395.020,23.438,36.621,109.375,40.039
1687428439.611,428.223,24.902,38.574,104.980,39.062
1687428439.615,-43.457,29.297,37.598,19.043,42.480
1687428439.619,-365.234,28.809,41.016,-25.391,6.348
1687428439.623,-148.438,26.855,39.551,8.301,26.367
1687428439.627,329.590,21.973,34.668,83.984,23.926
1687428439.631,433.105,19.531,35.156,99.121,-10.254
1687428439.635,-7.812,27.832,36.621,15.137,-7.812
1687428439.639,-386.230,24.414,39.062,-40.527,-1.953
1687428439.643,-227.539,20.508,34.180,-13.672,-10.254
1687428439.647,256.348,23.926,26.367,49.316,-20.508
1687428439.650,449.707,24.414,23.926,74.707,-11.719
1687428439.654,60.059,26.367,30.273,9.277,-11.719
1687428439.658,-347.168,27.344,34.180,-53.223,-58.594
1687428439.662,-240.234,26.367,31.738,-24.414,20.996
1687428439.666,226.074,24.902,34.668,63.965,63.477
1687428439.670,482.910,24.414,36.621,108.398,5.371
1687428439.674,150.391,26.855,39.551,50.293,43.945
1687428439.678,-300.781,28.809,43.945,-16.113,48.828
1687428439.682,-272.949,25.391,47.363,-6.348,20.508
1687428439.686,170.898,23.926,41.016,62.012,-11.230
1687428439.689,486.328,27.832,36.133,110.352,46.387
1687428439.693,207.031,29.297,38.086,50.781,70.801
1687428439.697,-283.691,27.832,38.086,-30.273,44.434
1687428439.701,-325.195,24.414,36.621,-26.367,15.137
1687428439.705,98.145,24.414,43.945,45.410,8.301
1687428439.709,469.727,25.879,49.316,108.398,46.387
1687428439.713,257.324,22.949,46.387,66.895,39.551
1687428439.717,-244.629,23.438,48.340,-18.555,-26.855
1687428439.721,-359.863,25.391,47.852,-35.156,-62.500
1687428439.725,22.949,20.996,43.457,20.996,17.090
1687428439.728,432.617,21.973,38.574,89.355,54.199
1687428439.732,294.434,25.879,37.109,62.500,12.207
1687428439.736,-202.637,24.902,38.086,-23.438,-20.508
1687428439.740,-376.465,24.414,37.109,-44.922,-16.113
1687428439.744,-36.133,28.320,35.645,13.672,0.488
1687428439.748,406.250,25.391,36.621,90.820,48.828
1687428439.752,348.145,28.320,41.016,77.148,55.176
1687428439.756,-143.066,32.715,41.504,-7.812,19.043
1687428439.760,-390.625,26.855,40.039,-40.039,-73.730
1687428439.764,-110.352,23.926,39.062,9.277,-90.820
1687428439.768,357.910,25.879,31.250,81.543,33.691
1687428439.771,387.695,26.855,30.273,78.125,34.668
1687428439.775,-83.984,26.855,37.109,2.441,-38.086
1687428439.779,-392.090,27.344,41.016,-32.715,8.301
1687428439.783,-157.227,24.902,41.992,13.184,33.203
1687428439.787,326.172,24.414,36.621,91.797,18.066
1687428439.791,429.688,22.461,34.180,109.375,36.133
1687428439.795,-4.883,26.367,37.109,32.227,0.000
1687428439.799,-375.977,33.691,34.180,-39.062,-14.160
1687428439.803,-217.285,30.762,26.855,-17.090,19.043
1687428439.807,271.484,28.809,26.855,70.801,58.594
1687428439.811,449.219,28.809,32.715,94.238,85.449
1687428439.814,51.758,28.809,41.016,22.949,38.086
1687428439.818,-351.074,27.832,43.945,-29.785,-7.812
1687428439.822,-247.559,25.879,39.551,-9.277,21.973
1687428439.826,224.609,27.832,36.621,62.500,33.691
1687428439.830,478.027,28.320,35.645,96.191,0.488
1687428439.834,128.906,26.855,34.668,39.551,0.977
1687428439.838,-319.824,25.879,33.691,-28.320,-9.766
1687428439.842,-273.926,26.367,36.133,-18.066,-14.160
1687428439.846,181.641,29.785,38.086,59.570,-12.695
1687428439.850,489.746,30.273,37.598,105.469,45.898
1687428439.853,203.125,25.391,40.039,55.664,50.781
1687428439.857,-277.344,24.414,46.387,-20.020,19.531
1687428439.861,-309.082,25.391,42.969,-23.926,-9.277
1687428439.865,111.816,22.949,39.062,45.410,2.441
1687428439.869,460.449,21.973,36.133,95.703,38.086
1687428439.873,239.746,20.020,37.109,53.711,-1.465
1687428439.877,-248.535,21.973,43.457,-26.367,-59.082
1687428439.881,-348.633,22.949,41.016,-40.039,-12.207
1687428439.885,38.574,20.996,33.691,23.438,54.199
1687428439.889,442.871,20.020,31.738,80.566,84.473
1687428439.893,296.875,23.438,34.180,46.387,47.363
1687428439.896,-194.824,26.855,37.109,-25.391,-16.602
1687428439.900,-361.328,20.020,33.691,-42.969,0.488
1687428439.904,-17.090,21.484,34.180,13.184,64.941
1687428439.908,426.758,24.902,36.133,83.008,81.543
1687428439.912,356.934,24.414,36.133,73.242,16.602
1687428439.916,-140.137,22.949,41.992,-3.418,-28.320
1687428439.920,-368.164,24.414,44.922,-40.039,-28.320
1687428439.924,-73.730,24.414,38.574,10.742,8.789
1687428439.928,388.184,25.879,35.156,87.402,23.926
1687428439.932,393.066,27.832,40.527,82.520,-29.785
1687428439.936,-78.613,29.297,44.434,8.301,-87.402
1687428439.939,-369.141,28.320,45.898,-33.203,-16.113
1687428439.943,-137.207,21.484,41.504,5.371,27.832
1687428439.947,337.891,21.484,34.180,79.590,38.574
1687428439.951,426.758,27.344,36.621,89.355,58.594
1687428439.955,-21.484,33.691,40.039,12.207,-22.461
1687428439.959,-377.441,35.156,41.504,-45.898,-13.672
1687428439.963,-192.871,30.762,43.945,-10.254,6.836
1687428439.967,293.945,31.738,44.434,64.453,-6.348
1687428439.971,455.566,33.691,40.039,85.449,0.977
1687428439.975,46.387,33.203,33.203,19.531,32.715
1687428439.979,-360.840,35.645,34.180,-45.410,9.766
1687428439.982,-240.723,35.645,38.086,-20.508,-13.672
1687428439.986,234.375,38.086,35.156,55.176,6.836
1687428439.990,460.449,38.086,34.668,90.820,2.441
1687428439.994,102.539,37.598,38.086,38.086,46.387
1687428439.998,-334.473,37.109,38.574,-31.738,64.941
1687428440.002,-289.062,33.691,39.062,-18.066,92.773
1687428440.006,164.062,33.203,42.969,57.129,78.613
1687428440.010,472.168,34.668,42.969,102.539,46.875
1687428440.014,176.270,36.133,41.504,49.316,48.828
1687428440.018,-299.316,38.086,43.945,-27.832,-16.602
1687428440.021,-315.430,36.133,46.387,-23.438,-69.824
1687428440.025,117.188,33.691,39.062,44.922,-17.578
1687428440.029,465.820,31.738,34.668,104.004,37.598
1687428440.033,232.422,32.715,44.922,68.848,27.344
1687428440.037,-257.324,32.227,47.363,-15.625,-56.152
1687428440.041,-347.656,29.785,42.480,-23.926,-55.176
1687428440.045,44.922,28.320,43.457,36.621,32.715
1687428440.049,437.500,28.320,42.969,99.609,27.832
1687428440.053,282.227,27.344,41.016,76.660,-26.367
1687428440.057,-210.449,25.879,42.969,-12.207,-47.852
1687428440.060,-368.164,27.832,41.504,-30.762,19.043
1687428440.064,-18.066,29.297,37.109,28.809,42.969
1687428440.068,417.480,28.809,34.668,93.750,20.508
1687428440.072,342.773,26.855,35.156,81.055,-15.137
1687428440.076,-154.785,26.367,38.574,0.977,-84.473
1687428440.080,-375.000,24.902,40.527,-31.250,-97.656
1687428440.084,-65.918,28.320,40.527,19.043,-28.320
1687428440.088,390.137,28.809,32.715,92.285,5.859
1687428440.092,385.742,27.832,29.785,91.797,48.828
1687428440.096,-91.797,29.297,37.598,7.812,105.469
1687428440.100,-375.977,28.320,38.574,-43.457,78.125
1687428440.103,-130.859,28.320,37.109,-4.883,98.145
1687428440.107,337.402,24.902,39.551,71.289,53.711
1687428440.111,411.621,24.414,40.039,84.473,-3.906
1687428440.115,-38.574,25.879,38.086,5.859,4.395
1687428440.119,-382.812,25.391,36.621,-52.246,-6.348
1687428440.123,-191.895,26.367,33.691,-20.020,-30.762
1687428440.127,284.180,25.879,29.785,57.617,-47.852
1687428440.131,434.570,26.855,28.320,82.031,-6.348
1687428440.135,26.367,26.855,31.250,16.602,41.504
1687428440.139,-367.188,20.996,36.133,-41.504,-4.883
1687428440.143,-233.887,20.508,39.551,-20.020,-15.137
1687428440.146,253.906,23.438,36.621,57.617,43.945
1687428440.150,476.074,21.973,33.203,99.121,18.555
1687428440.154,112.793,26.367,35.645,41.016,-10.254
1687428440.158,-313.965,27.832,37.109,-21.484,53.711
1687428440.162,-253.906,25.879,35.645,-12.207,4.883
1687428440.166,203.613,25.879,38.086,62.012,-10.254
1687428440.170,493.164,28.809,37.598,112.305,50.781
1687428440.174,183.594,27.832,39.551,53.223,54.199
1687428440.178,-288.574,26.367,40.527,-23.438,69.336
1687428440.182,-306.152,26.855,37.598,-21.484,51.270
1687428440.185,120.605,23.438,41.016,53.711,39.551
1687428440.189,466.797,23.438,39.551,108.398,2.441
1687428440.193,224.121,27.832,40.527,54.199,8.301
1687428440.197,-264.648,29.785,51.758,-23.926,-14.648
1687428440.201,-343.262,26.855,47.852,-32.715,-31.738
1687428440.205,54.199,24.414,37.109,29.297,15.137
1687428440.209,443.848,22.949,36.133,98.633,78.613
1687428440.213,273.438,24.414,38.574,58.594,58.594
1687428440.217,-223.145,28.320,41.016,-31.738,44.434
1687428440.221,-361.328,31.250,42.480,-47.852,0.000
1687428440.225,-2.930,29.297,41.504,14.648,-42.969
1687428440.228,418.457,25.879,40.039,92.285,-11.719
1687428440.232,330.078,29.297,37.598,73.730,30.273
1687428440.236,-160.156,30.273,38.086,-5.371,13.184
1687428440.240,-376.953,24.414,38.574,-34.180,37.598
1687428440.244,-66.406,26.367,33.691,16.113,41.016
1687428440.248,400.391,27.344,31.250,95.703,0.977
1687428440.252,390.625,23.438,34.668,88.867,59.570
1687428440.256,-93.262,25.391,41.016,6.836,33.203
1687428440.260,-372.559,22.949,41.992,-36.621,12.207
1687428440.264,-118.652,16.602,38.086,3.418,-33.203
1687428440.268,351.074,15.625,36.621,81.055,-40.527
1687428440.271,409.180,18.066,38.574,85.938,-43.945
1687428440.275,-45.410,18.555,41.992,2.930,-74.219
1687428440.279,-381.836,20.508,41.504,-45.410,-8.301
1687428440.283,-184.082,21.973,38.574,-10.254,41.016
1687428440.287,293.457,20.508,37.109,71.289,-3.906
1687428440.291,433.105,24.414,31.738,100.098,-69.824
1687428440.295,7.324,23.438,38.574,21.973,-33.203
1687428440.299,-392.090,14.648,49.805,-49.805,37.109
1687428440.303,-249.512,14.648,49.316,-18.066,-9.766
1687428440.307,233.398,16.602,47.363,70.312,-13.184
1687428440.311,447.754,20.508,41.504,95.215,36.133
1687428440.314,72.266,24.902,41.016,26.855,18.066
1687428440.318,-354.004,25.391,41.504,-33.691,50.781
1687428440.322,-270.996,24.414,44.434,-17.090,45.410
1687428440.326,188.477,24.414,44.922,64.941,-9.766
1687428440.330,462.402,23.926,41.504,108.398,-6.836
1687428440.334,146.973,20.508,43.945,53.223,85.449
1687428440.338,-309.570,22.949,46.387,-21.484,109.863
1687428440.342,-292.969,27.832,42.969,-20.508,77.637
1687428440.346,145.508,26.367,46.387,59.570,94.727
1687428440.350,480.469,25.391,49.316,110.840,28.320
1687428440.353,234.863,28.320,42.969,62.500,-53.711
1687428440.357,-248.535,28.809,45.410,-18.066,-19.043
1687428440.361,-316.406,25.879,48.828,-23.926,18.555
1687428440.365,85.938,22.949,47.363,47.363,4.395
1687428440.369,466.309,23.438,45.410,106.445,-5.371
1687428440.373,288.086,24.414,39.551,69.824,34.180
1687428440.377,-213.867,27.344,40.039,-19.531,31.738
1687428440.381,-352.051,28.809,47.852,-35.156,35.156
1687428440.385,14.648,26.367,43.945,30.273,47.363
1687428440.389,430.176,28.809,35.645,90.820,8.789
1687428440.392,316.406,26.367,40.039,70.312,-14.648
1687428440.396,-175.781,20.508,44.434,-12.695,-15.137
1687428440.400,-372.070,23.926,37.598,-42.480,-50.781
1687428440.404,-51.758,24.902,36.621,19.531,-14.648
1687428440.408,403.809,21.484,35.645,97.168,29.785
1687428440.412,381.836,22.949,38.574,94.727,39.062
1687428440.416,-95.703,27.344,47.363,18.555,-11.230
1687428440.420,-368.164,32.227,37.109,-33.691,-2.441
1687428440.424,-115.234,32.227,26.855,2.441,53.223
1687428440.428,351.562,30.273,30.762,74.219,20.508
1687428440.432,406.738,27.344,33.203,75.195,23.926
1687428440.435,-53.223,26.367,39.551,-1.465,21.973
1687428440.439,-375.977,27.832,42.480,-48.828,-14.160
1687428440.443,-167.480,27.344,37.109,-3.906,-10.254
1687428440.447,313.477,28.809,34.668,74.707,12.695
1687428440.451,437.012,29.785,38.086,92.773,-11.230
1687428440.455,12.207,29.785,40.527,18.555,43.457
1687428440.459,-367.188,28.320,40.527,-46.387,51.758
1687428440.463,-227.051,27.344,40.527,-16.602,-6.348
1687428440.467,251.465,26.367,40.039,64.453,64.453
1687428440.471,445.312,29.297,40.039,94.238,95.703
1687428440.475,72.754,33.203,41.992,24.902,44.434
1687428440.478,-342.773,32.227,45.898,-37.598,-21.484
1687428440.482,-256.836,33.203,43.945,-5.371,-76.660
1687428440.486,208.008,33.203,42.969,74.219,-52.734
1687428440.490,473.633,29.785,41.992,108.887,-1.465
1687428440.494,152.344,31.250,46.387,50.781,13.184
1687428440.498,-309.570,30.273,45.410,-22.949,28.320
1687428440.502,-295.898,26.367,40.039,-16.602,48.340
1687428440.506,142.090,24.414,34.668,53.223,10.254
1687428440.510,465.332,23.438,34.668,107.422,18.555
1687428440.514,207.520,24.902,46.387,63.477,1.953
1687428440.518,-276.855,28.809,46.387,-23.926,-48.340
1687428440.521,-331.055,29.785,44.922,-32.715,-24.414
1687428440.525,73.242,27.832,45.410,37.598,37.109
1687428440.529,444.336,29.785,37.109,98.145,23.438
1687428440.533,256.836,31.250,34.668,57.129,-0.488
1687428440.537,-241.699,27.344,36.621,-29.785,11.719
1687428440.541,-368.652,24.902,38.086,-41.016,14.160
1687428440.545,1.465,25.391,34.668,19.043,35.156
1687428440.549,422.363,24.902,31.250,85.938,48.340
1687428440.553,312.012,23.926,32.715,67.383,93.750
1687428440.557,-184.570,23.438,42.480,-12.207,90.820
1687428440.560,-375.488,22.949,47.852,-33.691,1.953
1687428440.564,-47.363,20.020,40.039,22.949,-4.883
1687428440.568,405.762,20.996,35.645,97.168,-32.715
1687428440.572,369.629,22.949,36.621,87.891,-19.531
1687428440.576,-116.699,22.461,39.551,3.906,35.645
1687428440.580,-369.629,19.531,40.039,-32.715,-2.930
1687428440.584,-99.121,17.578,37.109,19.043,-1.465
1687428440.588,368.164,20.020,37.598,91.797,19.531
1687428440.592,415.039,21.484,35.645,93.262,13.672
1687428440.596,-43.945,24.414,37.109,12.695,11.230
1687428440.600,-364.746,24.902,40.039,-38.086,-58.105
1687428440.603,-146.484,26.367,32.715,0.000,-30.762
1687428440.607,331.055,28.809,33.691,77.637,77.637
1687428440.611,445.801,31.250,38.574,87.891,19.531
1687428440.615,10.254,33.203,38.086,10.742,-28.320
1687428440.619,-371.582,32.227,41.016,-41.504,47.852
1687428440.623,-216.797,30.273,41.016,-13.672,28.809
1687428440.627,264.160,32.715,37.109,62.988,39.062
1687428440.631,455.078,34.668,33.691,94.727,24.414
1687428440.635,68.848,35.645,31.738,27.832,17.578
1687428440.639,-346.680,31.250,33.691,-41.992,58.105
1687428440.643,-255.371,27.344,32.715,-26.367,8.301
1687428440.646,201.660,34.180,25.879,51.270,-0.488
1687428440.650,458.008,32.715,25.879,91.797,9.277
1687428440.654,131.348,32.715,33.691,30.273,33.691
1687428440.658,-313.965,37.109,31.250,-38.574,24.414
1687428440.662,-292.480,33.691,27.832,-26.367,56.641
1687428440.666,143.555,32.715,29.297,47.363,58.594
1687428440.670,470.703,34.180,26.855,96.191,8.301
1687428440.674,203.125,32.227,25.391,43.457,55.176
1687428440.678,-282.715,31.738,27.832,-29.785,15.625
1687428440.682,-327.637,29.297,26.367,-31.250,5.859
1687428440.685,85.938,26.367,25.391,37.109,25.879
1687428440.689,453.613,27.832,27.832,98.633,-11.719
1687428440.693,247.559,26.855,27.832,53.711,12.695
1687428440.697,-242.188,24.414,29.297,-23.438,7.812
1687428440.701,-351.074,25.391,31.250,-28.809,6.836
1687428440.705,22.461,25.391,31.250,30.762,28.320
1687428440.709,428.223,25.879,23.926,96.680,18.555
1687428440.713,304.199,28.320,22.461,71.289,-8.301
1687428440.717,-187.500,26.855,29.297,-16.602,17.578
1687428440.721,-377.930,26.367,31.250,-38.574,-0.977
1687428440.725,-49.316,29.297,29.785,20.508,-11.719
1687428440.728,397.949,29.297,30.762,88.867,83.496
1687428440.732,352.051,29.297,35.156,79.590,28.809
1687428440.736,-133.301,29.297,35.645,2.441,-34.180
1687428440.740,-385.742,29.297,34.668,-38.574,42.480
1687428440.744,-104.980,27.832,33.203,4.883,27.832
1687428440.748,365.234,26.367,29.785,83.984,-4.395
1687428440.752,391.602,28.809,32.227,83.008,37.598
1687428440.756,-78.125,28.320,37.598,0.488,45.410
1687428440.760,-380.859,27.832,37.598,-46.875,11.719
1687428440.764,-154.785,28.809,34.180,-9.766,-35.645
1687428440.767,319.824,26.855,34.668,68.359,20.508
1687428440.771,426.270,26.855,36.621,83.008,117.676
1687428440.775,-6.348,25.391,38.574,11.719,93.262
1687428440.779,-369.629,22.949,42.480,-41.992,26.367
1687428440.783,-206.055,23.438,41.504,-16.113,2.441
1687428440.787,273.438,24.414,38.574,68.848,60.547
1687428440.791,454.102,24.414,39.062,99.121,68.848
1687428440.795,67.383,27.344,43.457,28.320,-17.578
1687428440.799,-344.238,28.320,48.340,-25.879,-21.484
1687428440.803,-240.723,27.344,46.387,-2.441,4.395
1687428440.807,232.422,24.414,42.480,68.359,-12.207
1687428440.810,476.074,24.902,40.527,109.375,-30.273
1687428440.814,139.160,31.250,45.410,56.152,1.953
1687428440.818,-303.223,33.691,50.293,-13.184,22.949
1687428440.822,-271.484,28.809,44.922,-9.766,10.742
1687428440.826,169.434,25.391,41.016,62.988,-17.090
1687428440.830,474.609,28.320,38.574,111.328,-14.160
1687428440.834,200.684,30.762,36.621,67.383,42.969
1687428440.838,-275.391,24.902,38.574,-11.230,9.766
1687428440.842,-319.824,25.879,40.039,-17.578,14.648
1687428440.846,96.680,30.762,38.086,48.828,58.105
1687428440.849,467.285,26.855,34.180,100.098,3.418
1687428440.853,255.371,25.391,36.621,62.500,17.578
1687428440.857,-238.281,25.879,40.527,-17.578,14.160
1687428440.861,-342.773,22.949,40.039,-35.156,8.301
1687428440.865,34.668,20.508,37.109,23.438,13.184
1687428440.869,445.312,23.438,33.203,92.285,-7.812
1687428440.873,313.477,26.367,38.574,70.312,43.457
1687428440.877,-181.152,28.809,44.434,-9.766,91.309
1687428440.881,-357.422,30.273,43.457,-34.180,-16.113
1687428440.885,-17.578,33.203,39.551,26.367,-41.992
1687428440.889,417.480,31.738,38.574,100.098,53.223
1687428440.892,358.887,27.832,39.551,86.426,14.160
1687428440.896,-119.629,25.879,42.969,4.395,-13.672
1687428440.900,-365.723,26.855,45.898,-31.738,19.531
1687428440.904,-74.707,30.762,42.480,18.555,45.898
1687428440.908,388.672,31.250,38.574,89.844,8.789
1687428440.912,399.902,29.785,41.504,85.938,-4.883
1687428440.916,-69.336,29.785,42.480,12.695,22.949
1687428440.920,-374.023,30.762,43.457,-31.250,-4.395
1687428440.924,-142.090,32.715,45.410,7.324,11.230
1687428440.928,333.984,29.297,39.551,84.473,10.254
1687428440.932,425.781,28.809,36.621,98.145,76.172
1687428440.935,-15.625,33.203,40.527,23.438,73.242
1687428440.939,-360.840,33.203,42.969,-32.227,13.672
1687428440.943,-187.012,29.785,41.016,-3.418,57.617
1687428440.947,273.926,26.367,39.551,72.754,-1.465
1687428440.951,441.895,26.367,39.551,103.027,-12.207
1687428440.955,54.688,29.785,44.434,37.598,39.551
1687428440.959,-348.145,28.320,48.828,-27.344,41.016
1687428440.963,-244.141,24.414,41.992,-9.766,-34.180
1687428440.967,224.609,24.414,37.109,64.453,-48.828
1687428440.971,465.332,22.949,37.598,102.051,-0.488
1687428440.975,117.188,23.438,39.551,41.504,18.555
1687428440.978,-327.637,20.508,43.457,-25.391,-15.625
1687428440.982,-286.133,16.602,44.434,-12.695,-8.301
1687428440.986,159.668,18.555,38.574,54.199,69.824
1687428440.990,457.031,22.461,38.574,102.051,72.266
1687428440.994,168.945,27.344,44.922,55.176,13.672
1687428440.998,-297.852,28.809,41.992,-23.926,-53.223
1687428441.002,-320.801,29.785,38.086,-23.438,-37.109
1687428441.006,93.262,26.855,38.574,45.898,14.648
1687428441.010,443.359,21.973,35.645,96.191,28.320
1687428441.014,238.281,24.414,36.133,57.129,-10.742
1687428441.017,-242.676,25.879,40.039,-21.484,-22.949
1687428441.021,-342.773,20.996,41.016,-33.691,-9.766
1687428441.025,43.945,20.996,43.945,35.645,-75.195
1687428441.029,442.871,22.949,41.504,98.145,-52.246
1687428441.033,299.805,22.461,36.621,68.359,31.250
1687428441.037,-196.777,24.414,38.574,-13.184,-23.438
1687428441.041,-369.629,21.973,43.945,-34.668,-53.223
1687428441.045,-19.531,23.438,38.574,24.414,-0.977
1687428441.049,417.480,26.367,32.227,95.703,64.941
1687428441.053,343.750,26.367,38.086,82.031,71.777
1687428441.057,-141.113,28.809,42.480,0.977,29.785
1687428441.060,-367.676,29.785,44.434,-28.809,19.043
1687428441.064,-72.266,28.320,43.457,21.973,-3.418
1687428441.068,389.160,26.855,41.504,98.633,11.719
1687428441.072,398.926,25.879,41.016,104.980,14.648
1687428441.076,-72.266,23.926,40.039,28.320,-16.602
1687428441.080,-362.305,23.926,38.574,-19.531,20.020
1687428441.084,-128.418,28.809,38.086,17.090,23.926
1687428441.088,345.215,29.297,33.203,91.309,-37.109
1687428441.092,437.988,24.902,29.785,103.027,2.930
1687428441.096,-9.766,25.391,34.180,25.391,53.711
1687428441.100,-365.723,25.391,37.598,-30.273,35.156
1687428441.103,-194.336,21.973,37.109,-6.348,22.461
1687428441.107,277.832,16.602,33.203,67.871,28.809
1687428441.111,439.453,16.113,34.180,93.750,39.062
1687428441.115,37.109,18.555,36.133,21.973,22.461
1687428441.119,-362.793,18.555,36.621,-40.039,8.789
1687428441.123,-248.047,17.578,40.039,-16.113,-8.301
1687428441.127,216.309,16.602,37.598,63.965,18.555
1687428441.131,447.266,15.137,31.250,103.027,104.004
1687428441.135,103.516,20.020,33.203,36.133,57.617
1687428441.139,-336.914,21.484,38.574,-38.574,46.875
1687428441.142,-291.504,16.602,39.551,-22.461,60.059
1687428441.146,166.016,15.625,41.016,57.617,34.668
1687428441.150,472.168,20.020,45.898,109.375,62.012
1687428441.154,182.617,24.414,46.387,61.035,70.801
1687428441.158,-280.762,24.902,44.434,-17.090,33.691
1687428441.162,-291.504,25.391,40.527,-19.043,42.480
1687428441.166,134.277,24.902,37.109,53.711,-4.395
1687428441.170,479.004,22.949,34.668,114.746,8.789
1687428441.174,246.582,24.414,38.086,74.219,53.711
1687428441.178,-237.793,27.832,39.551,-8.789,1.953
1687428441.181,-322.266,31.250,38.086,-24.414,-54.199
1687428441.185,61.523,33.203,43.945,45.898,-44.922
1687428441.189,454.590,33.203,40.039,110.352,23.926
1687428441.193,306.641,35.156,32.715,80.566,46.387
1687428441.197,-193.359,34.180,37.598,1.465,31.250
1687428441.201,-357.910,30.762,39.062,-25.879,-0.977
1687428441.205,-1.465,26.367,37.598,33.691,-22.461
1687428441.209,425.781,24.414,39.551,104.492,-2.930
1687428441.213,344.727,25.879,35.645,88.379,-6.836
1687428441.217,-138.672,26.367,39.062,9.766,19.043
1687428441.221,-363.770,27.832,46.875,-26.367,13.672
1687428441.224,-59.570,30.273,44.434,22.949,-13.672
1687428441.228,393.066,25.879,40.527,100.586,12.695
1687428441.232,382.812,24.414,39.062,94.727,28.320
1687428441.236,-87.402,25.879,42.969,21.973,-13.672
1687428441.240,-368.652,24.414,45.410,-19.043,-40.527
1687428441.244,-125.977,20.996,41.992,15.137,-6.836
1687428441.248,344.727,20.996,42.480,93.262,-14.648
1687428441.252,421.387,25.879,42.480,101.074,-31.250
1687428441.256,-21.484,27.832,48.340,28.320,9.277
1687428441.260,-364.746,25.879,50.293,-27.832,21.484
1687428441.264,-184.570,22.461,42.480,8.789,3.418
1687428441.267,288.574,21.973,38.086,89.844,8.301
1687428441.271,439.941,22.949,38.086,103.027,40.527
1687428441.275,37.109,23.438,39.551,33.203,99.121
1687428441.279,-354.980,23.438,42.480,-31.250,92.773
1687428441.283,-234.375,24.414,41.504,-12.695,25.391
1687428441.287,238.281,22.949,38.086,64.453,7.324
1687428441.291,459.961,24.902,40.039,99.121,78.125
1687428441.295,97.168,28.809,37.598,36.621,21.973
1687428441.299,-333.008,25.879,34.668,-35.645,-43.457
1687428441.303,-274.414,24.414,32.227,-23.926,-57.617
1687428441.306,173.828,26.367,30.762,47.852,-60.059
1687428441.310,454.102,25.391,33.203,85.449,37.598
1687428441.314,161.621,24.902,35.645,34.180,25.391
1687428441.318,-301.758,28.320,34.668,-44.434,63.477
1687428441.322,-314.453,29.297,38.086,-41.016,77.148
1687428441.326,114.258,26.855,35.645,37.598,17.578
1687428441.330,452.148,27.344,34.180,88.379,20.020
1687428441.334,214.355,29.785,36.133,45.410,16.113
1687428441.338,-273.438,32.227,38.574,-38.574,-4.395
1687428441.342,-354.980,30.762,41.504,-49.805,-39.551
1687428441.346,41.504,28.809,41.016,22.461,-26.367
1687428441.349,427.246,26.855,44.922,83.984,5.859
1687428441.353,264.648,26.367,43.945,53.711,13.184
1687428441.357,-219.238,26.855,40.039,-23.438,4.883
1687428441.361,-360.840,25.879,41.504,-40.527,-21.973
1687428441.365,-4.395,26.367,40.527,29.785,-42.969
1687428441.369,419.922,29.297,38.086,102.051,18.066
1687428441.373,334.961,31.250,38.574,78.125,24.414
1687428441.377,-147.461,33.203,41.016,-5.371,-12.695
1687428441.381,-363.770,32.227,41.016,-34.180,-55.176
1687428441.385,-57.129,31.738,37.598,24.414,-10.742
1687428441.389,398.438,32.227,40.527,96.680,38.574
1687428441.392,384.277,34.668,49.805,83.984,-1.465
1687428441.396,-89.355,34.668,49.805,-1.953,22.949
1687428441.400,-366.699,31.738,42.480,-43.457,9.766
1687428441.404,-119.629,32.227,37.109,8.789,2.930
1687428441.408,348.633,29.785,36.621,81.543,-1.953
1687428441.412,413.086,27.832,40.527,85.938,18.066
1687428441.416,-34.668,31.250,39.551,9.277,38.086
1687428441.420,-361.328,30.273,40.039,-40.039,20.996
1687428441.424,-167.969,30.273,37.598,-3.906,-20.020
1687428441.428,301.270,31.738,32.715,72.266,-12.207
1687428441.432,443.359,33.203,32.715,97.656,64.453
1687428441.435,35.645,34.668,35.645,24.414,43.457
1687428441.439,-342.773,34.668,34.180,-29.785,24.414
1687428441.443,-209.961,34.668,32.227,2.930,26.367
1687428441.447,258.789,34.180,31.738,79.590,5.859
1687428441.451,472.656,33.203,30.273,111.816,-15.137
1687428441.455,110.352,34.180,30.762,38.086,45.410
1687428441.459,-315.918,32.715,36.133,-24.414,49.316
1687428441.463,-251.953,29.297,39.551,-5.371,-20.020
1687428441.467,201.172,33.203,36.133,69.824,-21.484
1687428441.471,476.562,31.250,40.527,122.070,-2.441
1687428441.474,165.039,28.809,47.852,62.500,-12.695
1687428441.478,-298.828,28.320,46.387,-21.484,-7.324
1687428441.482,-298.340,25.391,45.410,-15.625,-22.461
1687428441.486,127.441,25.879,42.969,60.547,5.371
1687428441.490,454.102,22.949,36.621,105.957,27.344
1687428441.494,210.938,21.973,37.598,54.688,44.922
1687428441.498,-265.137,24.902,40.039,-26.855,25.879
1687428441.502,-332.520,24.414,40.039,-29.297,-1.465
1687428441.506,59.570,24.414,38.086,35.156,-32.227
1687428441.510,444.336,20.996,36.133,88.867,-23.926
1687428441.513,281.738,22.461,31.250,54.688,46.875
1687428441.517,-208.496,21.484,31.738,-23.438,24.414
1687428441.521,-345.215,17.578,36.133,-30.273,8.301
1687428441.525,21.973,27.344,33.203,34.668,-35.156
1687428441.529,447.266,28.320,26.855,101.562,-5.371
1687428441.533,350.098,28.320,26.367,82.520,54.688
1687428441.537,-141.602,32.227,33.203,5.371,51.270
1687428441.541,-346.191,30.762,38.574,-12.695,26.367
1687428441.545,-30.273,30.273,35.645,43.457,18.555
1687428441.549,410.645,28.809,31.250,108.398,33.691
1687428441.553,393.066,27.344,34.180,95.703,27.344
1687428441.556,-73.242,29.785,41.016,11.230,4.395
1687428441.560,-347.656,29.297,40.039,-25.391,-20.508
1687428441.564,-97.656,27.832,41.992,18.555,-13.672
1687428441.568,363.281,29.785,42.480,91.797,-11.230
1687428441.572,412.598,28.320,33.691,90.820,37.598
1687428441.576,-49.316,24.902,32.227,6.836,10.254
1687428441.580,-375.977,23.926,35.645,-35.156,-16.113
1687428441.584,-171.875,25.879,38.574,2.930,8.789
1687428441.588,295.410,27.832,37.109,78.125,-8.789
1687428441.592,422.363,27.832,40.527,88.867,22.461
1687428441.596,4.883,27.832,37.598,7.324,56.152
1687428441.599,-365.723,26.367,34.180,-44.434,21.484
1687428441.603,-219.238,28.809,41.504,-10.742,7.812
1687428441.607,245.117,26.367,41.016,68.848,17.090
1687428441.611,445.312,23.438,35.645,94.238,5.371
1687428441.615,83.008,29.297,33.203,26.367,-4.395
1687428441.619,-331.055,24.902,38.574,-27.832,-12.207
1687428441.623,-254.395,20.508,42.480,-6.348,-23.438
1687428441.627,201.660,20.996,40.527,72.754,23.438
1687428441.631,472.168,21.484,39.551,113.281,41.992
1687428441.635,160.156,23.926,38.086,49.805,19.043
1687428441.638,-296.387,28.320,41.504,-20.020,41.016
1687428441.642,-289.551,27.832,41.992,-15.137,15.137
1687428441.646,145.508,25.879,34.180,55.176,-7.324
1687428441.650,470.703,27.832,30.273,104.004,-14.160
1687428441.654,218.750,30.762,35.156,57.129,27.832
1687428441.658,-256.348,27.832,34.180,-18.555,44.434
1687428441.662,-314.941,26.855,32.715,-27.344,-24.902
1687428441.666,78.125,25.391,39.551,40.039,-53.223
1687428441.670,443.848,21.973,34.668,88.867,17.578
1687428441.674,261.230,26.367,31.250,49.316,32.715
1687428441.678,-227.051,29.297,38.574,-22.949,-13.672
1687428441.681,-358.887,25.391,43.457,-38.086,19.043
1687428441.685,1.953,23.926,43.457,24.902,45.898
1687428441.689,420.898,24.414,41.504,88.379,-3.906
1687428441.693,317.871,26.855,40.527,63.965,3.418
1687428441.697,-161.621,30.762,49.316,-6.836,-15.137
1687428441.701,-350.586,31.738,50.781,-30.273,-6.348
1687428441.705,-35.156,28.320,41.504,22.949,7.812
1687428441.709,406.738,23.926,35.156,93.750,-36.133
1687428441.713,374.023,23.438,32.227,82.520,0.000
1687428441.717,-99.609,23.926,34.668,7.812,29.297
1687428441.721,-363.770,19.043,39.062,-30.273,22.461
1687428441.724,-104.980,17.090,41.992,12.695,6.836
1687428441.728,354.980,17.578,44.922,81.055,45.410
1687428441.732,396.484,19.531,43.457,85.938,41.992
1687428441.736,-51.758,23.926,42.969,16.113,-36.621
1687428441.740,-362.793,23.926,47.852,-36.133,-38.574
1687428441.744,-160.645,24.414,49.316,2.930,20.508
1687428441.748,311.035,25.879,42.480,76.660,32.715
1687428441.752,431.641,25.391,40.527,87.891,24.902
1687428441.756,8.301,26.855,44.434,20.996,28.809
1687428441.760,-360.840,27.832,45.898,-40.527,25.879
1687428441.763,-212.402,27.832,44.434,-6.836,16.113
1687428441.767,263.184,26.367,43.457,72.266,2.930
1687428441.771,460.449,28.320,41.016,93.262,0.000
1687428441.775,87.891,32.715,34.668,38.086,46.387
1687428441.779,-325.195,29.297,37.598,-26.367,43.457
1687428441.783,-245.605,31.250,40.039,-14.160,-40.527
1687428441.787,203.613,34.668,38.574,67.871,-25.391
1687428441.791,462.402,33.691,39.551,106.445,-13.672
1687428441.795,144.531,38.086,41.504,42.969,-0.977
1687428441.799,-304.688,39.062,43.945,-31.738,55.664
1687428441.803,-290.039,36.133,42.480,-25.391,66.406
1687428441.806,142.090,32.715,39.551,43.945,43.945
1687428441.810,463.867,32.715,37.598,92.773,39.551
1687428441.814,206.055,35.645,36.133,50.293,-10.742
1687428441.818,-269.043,34.668,37.598,-23.438,-7.812
1687428441.822,-317.383,33.203,43.457,-23.438,49.316
1687428441.826,84.961,29.297,38.086,38.574,12.207
1687428441.830,453.613,25.391,34.180,95.703,45.410
1687428441.834,262.695,26.367,33.691,69.336,101.074
1687428441.838,-220.703,26.367,36.621,-12.695,4.395
1687428441.842,-337.402,24.414,38.086,-35.156,-14.160
1687428441.845,23.926,24.902,37.598,24.902,28.809
1687428441.849,432.129,23.926,32.227,89.355,8.301
1687428441.853,316.895,24.902,28.320,67.871,6.348
1687428441.857,-170.898,25.879,42.480,-9.766,28.320
1687428441.861,-364.746,24.414,46.387,-37.598,60.059
1687428441.865,-41.992,22.949,38.574,16.113,41.016
1687428441.869,402.832,23.438,39.062,88.867,49.805
1687428441.873,361.328,28.809,42.480,84.473,25.391
1687428441.877,-115.723,31.250,43.945,6.348,18.555
1687428441.881,-371.582,30.273,46.387,-33.691,47.363
1687428441.885,-93.262,33.691,46.387,8.301,36.621
1687428441.888,362.793,34.668,41.016,81.543,32.227
1687428441.892,389.160,34.180,38.086,83.984,46.387
1687428441.896,-64.941,34.668,39.062,0.000,-30.762
1687428441.900,-375.488,32.715,41.992,-48.340,-31.250
1687428441.904,-162.109,31.738,38.086,-13.184,54.688
1687428441.908,307.617,33.203,34.180,62.988,92.285
1687428441.912,420.898,32.715,35.156,85.449,51.758
1687428441.916,-2.441,31.250,35.645,12.207,-1.465
1687428441.920,-364.258,31.738,37.598,-44.922,-10.742
1687428441.924,-214.844,26.855,43.945,-13.184,-8.301
1687428441.928,252.441,20.020,43.945,70.312,33.691
1687428441.931,446.777,16.602,39.062,103.027,-0.488
1687428441.935,66.406,15.625,42.480,36.133,-61.523
1687428441.939,-339.844,15.137,47.852,-26.367,17.090
1687428441.943,-245.605,15.625,47.363,-2.441,90.332
1687428441.947,211.426,16.113,48.828,73.730,30.273
1687428441.951,466.797,16.113,50.781,112.305,-51.758
1687428441.955,143.066,20.996,47.363,49.805,-33.203
1687428441.959,-307.617,24.414,48.828,-26.367,21.973
1687428441.963,-290.527,23.926,48.828,-19.531,33.691
1687428441.967,138.672,21.973,46.387,52.734,44.922
1687428441.970,441.406,23.438,41.992,98.145,23.438
1687428441.974,184.570,27.832,36.621,51.270,-1.953
1687428441.978,-281.250,25.391,41.016,-23.926,13.672
1687428441.982,-331.543,21.484,41.992,-36.133,-13.672
1687428441.986,78.125,32.715,44.434,39.551,-1.465
1687428441.990,446.289,41.016,50.293,107.910,9.766
1687428441.994,249.023,34.180,49.805,65.430,17.090
1687428441.998,-243.652,27.832,40.527,-28.809,20.508
1687428442.002,-355.957,33.203,29.785,-48.828,-8.789
1687428442.006,6.348,35.156,39.551,11.230,0.000
1687428442.010,396.484,33.691,48.340,73.242,2.441
1687428442.013,271.973,48.828,41.992,45.898,50.293
1687428442.017,-220.215,47.363,42.969,-44.434,48.828
1687428442.021,-409.668,36.133,41.016,-86.914,34.180
1687428442.025,-99.609,36.133,45.898,-46.387,55.176
1687428442.029,301.758,44.434,56.641,-1.465,30.273
1687428442.033,218.262,48.828,71.289,-45.898,-49.805
1687428442.037,-266.113,48.828,85.449,-137.695,-10.254
1687428442.041,-519.531,50.293,86.426,-182.129,43.945
1687428442.045,-249.023,57.129,90.820,-142.578,-4.883
1687428442.049,216.309,66.895,91.309,-65.918,9.277
1687428442.052,246.582,67.871,81.055,-56.641,51.270
1687428442.056,-202.148,62.500,78.125,-119.141,45.898
1687428442.060,-481.445,55.176,78.613,-149.414,16.113
1687428442.064,-241.699,49.805,68.848,-94.238,5.859
1687428442.068,242.188,47.363,55.664,8.301,12.207
1687428442.072,363.770,43.457,50.293,41.016,23.926
1687428442.076,-43.945,41.016,46.387,-17.090,65.430
1687428442.080,-385.254,36.133,39.551,-57.129,23.926
1687428442.084,-221.191,29.785,37.109,-18.066,-51.758
1687428442.088,259.277,24.902,29.297,74.219,-8.789
1687428442.092,453.613,23.926,29.297,109.863,-6.836
1687428442.095,70.801,24.902,29.297,41.016,6.348
1687428442.099,-329.102,24.902,20.020,-19.531,34.668
1687428442.103,-223.633,24.902,21.484,5.859,42.969
1687428442.107,241.211,22.461,22.461,89.844,41.504
1687428442.111,493.652,20.508,16.602,130.371,26.855
1687428442.115,160.645,20.020,7.812,67.383,19.043
1687428442.119,-281.738,18.066,5.859,-2.441,14.648
1687428442.123,-244.629,20.020,12.695,11.230,9.766
1687428442.127,196.777,19.531,11.719,87.891,35.645
1687428442.131,501.465,16.602,5.371,139.160,50.293
1687428442.135,228.516,19.043,11.230,91.797,-6.348
1687428442.138,-229.492,19.531,20.996,20.996,-8.789
1687428442.142,-256.836,19.531,19.043,18.555,35.156
1687428442.146,150.391,19.043,18.066,86.914,81.055
1687428442.150,501.953,18.066,21.484,144.531,92.285
1687428442.154,298.828,20.020,23.438,103.516,45.898
1687428442.158,-183.594,20.020,23.926,24.414,26.855
1687428442.162,-295.898,16.113,24.414,10.742,1.465
1687428442.166,75.195,12.695,27.832,68.359,-28.809
1687428442.170,476.562,12.695,26.367,134.277,-46.387
1687428442.174,343.262,18.555,32.227,114.258,3.906
1687428442.178,-145.020,22.949,35.645,27.832,23.438
1687428442.181,-317.383,20.020,34.180,1.465,2.441
1687428442.185,11.230,20.508,32.227,56.641,-22.461
1687428442.189,437.012,20.508,27.344,122.559,8.301
1687428442.193,375.488,20.508,26.367,106.934,30.273
1687428442.197,-98.633,22.949,29.297,28.320,-27.344
1687428442.201,-339.844,21.973,25.879,-11.719,-25.391
1687428442.205,-62.012,20.020,19.531,30.762,6.836
1687428442.209,390.625,18.066,20.020,106.445,-23.438
1687428442.213,411.621,23.926,27.344,107.422,-38.574
1687428442.217,-40.039,27.832,26.855,25.879,-34.668
1687428442.220,-340.820,24.414,21.973,-20.996,8.301
1687428442.224,-116.699,26.855,20.996,22.949,17.090
1687428442.228,354.004,27.832,19.531,101.074,-13.184
1687428442.232,450.195,24.902,18.555,117.188,0.977
1687428442.236,21.484,27.344,24.902,41.016,-24.902
1687428442.240,-327.148,26.855,35.645,-14.648,-48.828
1687428442.244,-161.133,19.531,35.645,16.602,38.574
1687428442.248,303.223,20.020,29.297,91.309,61.523
1687428442.252,466.797,20.996,28.809,123.535,41.504
1687428442.256,77.637,20.996,32.227,55.664,28.320
1687428442.260,-313.477,23.926,33.691,-10.742,-54.688
1687428442.263,-206.543,22.949,36.621,13.184,-38.574
1687428442.267,244.629,20.508,38.574,92.285,4.883
1687428442.271,477.539,21.484,39.551,127.930,33.203
1687428442.275,140.625,24.902,43.457,68.848,70.801
1687428442.279,-293.945,23.926,46.387,-5.371,19.043
1687428442.283,-253.418,20.996,45.410,0.000,-2.930
1687428442.287,184.570,21.484,40.527,75.195,18.066
1687428442.291,478.516,19.531,37.598,120.117,46.387
1687428442.295,197.754,18.066,38.086,65.918,42.969
1687428442.299,-273.926,18.555,38.574,-14.160,62.988
1687428442.302,-305.664,20.996,37.109,-19.043,49.805
1687428442.306,116.699,22.949,29.297,47.363,-28.809
1687428442.310,464.844,23.438,26.367,104.492,-29.297
1687428442.314,246.582,25.391,32.227,61.523,44.434
1687428442.318,-229.980,25.391,36.133,-18.555,28.809
1687428442.322,-324.707,24.902,37.109,-30.273,3.418
1687428442.326,51.758,25.879,39.062,31.738,22.949
1687428442.330,443.848,27.344,37.598,98.633,-1.953
1687428442.334,303.711,29.297,34.668,75.684,-41.504
1687428442.338,-185.547,28.809,36.621,-7.812,-46.875
1687428442.342,-353.516,22.949,38.574,-33.203,-38.574
1687428442.345,-24.414,20.996,37.109,28.809,-23.438
1687428442.349,396.484,20.996,31.738,93.262,67.383
1687428442.353,323.242,20.996,33.691,70.312,31.738
1687428442.357,-160.156,23.438,44.434,-9.277,14.160
1687428442.361,-387.207,21.973,44.922,-37.598,89.355
1687428442.365,-94.727,20.020,40.527,9.766,7.812
1687428442.369,363.281,18.066,39.062,82.520,-20.996
1687428442.373,373.535,20.508,41.504,83.984,34.668
1687428442.377,-88.379,19.531,44.434,3.418,-12.207
1687428442.381,-374.023,18.066,37.598,-41.504,-49.805
1687428442.385,-142.090,18.066,34.668,3.418,-11.719
1687428442.388,323.242,17.090,35.156,81.055,16.113
1687428442.392,412.109,20.020,32.227,87.402,41.992
1687428442.396,-12.695,23.926,37.598,7.812,12.207
1687428442.400,-351.074,24.902,42.480,-38.086,35.156
1687428442.404,-171.875,24.414,38.574,0.977,25.879
1687428442.408,296.875,25.391,33.691,78.125,-4.395
1687428442.412,454.102,25.391,33.203,100.098,10.742
1687428442.416,62.012,30.273,34.180,30.762,62.988
1687428442.420,-324.707,30.762,34.668,-24.414,55.176
1687428442.424,-208.984,31.738,36.621,-1.465,16.113
1687428442.427,248.047,34.668,33.203,73.242,25.879
1687428442.431,466.309,35.645,32.715,108.398,45.410
1687428442.435,113.281,34.668,37.109,38.574,70.801
1687428442.439,-310.547,34.668,38.574,-32.715,60.547
1687428442.443,-257.812,38.086,42.480,-21.484,15.137
1687428442.447,171.387,34.668,38.086,49.316,2.930
1687428442.451,459.961,28.809,32.715,99.609,39.062
1687428442.455,180.664,34.668,38.574,45.898,22.461
1687428442.459,-285.156,38.086,41.992,-33.203,29.785
1687428442.463,-306.152,35.156,39.062,-30.762,40.527
1687428442.467,108.398,32.715,35.645,38.086,3.906
1687428442.470,451.660,28.809,36.133,100.098,-32.227
1687428442.474,233.398,31.738,38.574,60.059,29.785
1687428442.478,-250.000,33.203,41.504,-21.484,-0.488
1687428442.482,-336.426,28.320,41.504,-26.855,-41.016
1687428442.486,49.805,30.273,38.086,35.645,-0.488
1687428442.490,440.918,33.203,37.109,94.238,-11.230
1687428442.494,295.898,34.668,36.621,66.406,23.438
1687428442.498,-188.477,39.062,39.551,-10.254,8.789
1687428442.502,-343.262,35.645,39.062,-28.320,-3.906
1687428442.506,-0.977,27.832,31.738,27.344,-2.930
1687428442.510,412.109,27.832,29.785,94.727,37.109
1687428442.513,335.449,26.855,30.273,72.266,83.496
1687428442.517,-132.812,28.320,35.645,-7.324,67.871
1687428442.521,-350.098,27.832,41.016,-27.344,69.336
1687428442.525,-66.406,28.809,42.480,28.809,31.738
1687428442.529,381.836,29.297,41.992,100.586,25.879
1687428442.533,385.254,27.344,41.016,89.844,47.363
1687428442.537,-83.008,25.879,41.992,9.277,-20.020
1687428442.541,-365.723,20.020,45.410,-33.691,-11.719
1687428442.545,-118.164,21.484,43.945,5.859,50.293
1687428442.549,339.844,26.367,38.086,79.590,29.297
1687428442.553,405.762,23.926,40.527,83.984,14.160
1687428442.556,-25.879,23.438,47.363,14.648,7.812
1687428442.560,-355.957,23.438,43.457,-27.832,-1.465
1687428442.564,-176.270,23.438,36.621,3.906,-43.457
1687428442.568,283.203,23.926,38.086,80.566,-34.668
1687428442.572,429.688,23.438,38.574,99.609,10.742
1687428442.576,38.574,25.391,42.969,36.621,13.672
1687428442.580,-342.285,28.809,44.922,-19.043,-3.906
1687428442.584,-226.562,32.227,41.992,-0.488,44.434
1687428442.588,231.445,33.691,39.062,73.242,46.387
1687428442.592,453.613,35.156,33.691,99.609,7.324
1687428442.595,104.492,36.621,34.668,36.621,2.930
1687428442.599,-320.312,37.109,34.668,-28.809,-20.996
1687428442.603,-260.254,38.086,28.809,-20.020,-3.906
1687428442.607,180.664,37.109,33.203,54.688,-10.742
1687428442.611,457.031,37.598,36.133,93.262,-0.977
1687428442.615,162.109,32.227,32.715,38.574,-0.488
1687428442.619,-295.410,30.273,34.668,-29.297,-40.039
1687428442.623,-299.316,35.156,35.156,-22.461,-1.465
1687428442.627,121.582,33.203,37.109,52.734,7.324
1687428442.631,454.590,31.738,35.645,100.586,-28.320
1687428442.634,229.004,32.227,29.785,56.641,-5.371
1687428442.638,-248.535,31.250,34.668,-11.230,38.574
1687428442.642,-326.172,33.691,38.574,-19.043,-0.488
1687428442.646,61.523,32.715,36.133,46.875,3.906
1687428442.650,439.453,28.320,35.645,107.422,37.598
1687428442.654,282.227,27.832,39.551,77.148,19.043
1687428442.658,-193.359,28.809,49.316,0.000,11.230
1687428442.662,-342.285,27.344,44.922,-26.367,-33.691
1687428442.666,-2.930,27.832,34.180,34.180,0.488
1687428442.670,413.574,29.785,31.250,98.633,31.250
1687428442.674,329.102,29.297,37.598,75.195,27.344
1687428442.677,-146.484,28.809,42.480,-9.766,37.109
1687428442.681,-363.281,22.949,38.574,-45.410,40.039
1687428442.685,-70.312,20.020,33.203,8.301,49.805
1687428442.689,373.535,21.973,30.273,73.730,95.703
1687428442.693,363.770,24.414,34.180,64.941,62.500
1687428442.697,-100.586,26.367,36.621,-7.324,16.113
1687428442.701,-375.977,24.902,38.574,-45.410,-12.695
1687428442.705,-123.535,27.344,41.016,4.395,-13.672
1687428442.709,344.238,25.391,36.133,79.590,48.828
1687428442.713,410.645,26.855,33.691,87.402,70.312
1687428442.717,-24.902,32.227,35.156,18.555,49.316
1687428442.720,-349.609,30.762,38.574,-28.809,16.113
1687428442.724,-156.250,27.832,38.574,7.324,-30.273
1687428442.728,305.664,30.273,33.203,81.055,1.953
1687428442.732,436.523,31.738,36.133,94.727,20.020
1687428442.736,30.762,34.180,41.016,24.902,-18.066
1687428442.740,-348.145,34.180,37.598,-30.762,-18.066
1687428442.744,-226.074,26.855,35.645,-9.277,-45.410
1687428442.748,232.910,28.320,33.691,60.059,45.898
1687428442.752,447.266,32.715,33.691,94.727,63.477
1687428442.756,90.820,34.668,37.598,38.574,-31.250
1687428442.759,-332.520,36.621,38.086,-31.738,56.641
1687428442.763,-268.555,32.227,40.527,-17.090,103.516
1687428442.767,175.781,26.855,34.668,49.805,35.156
1687428442.771,450.195,30.762,30.762,89.355,9.277
1687428442.775,152.832,34.180,35.645,38.574,9.277
1687428442.779,-291.992,31.250,35.645,-34.668,35.156
1687428442.783,-294.922,28.320,34.668,-32.715,-23.438
1687428442.787,122.559,28.320,32.715,32.715,-26.855
1687428442.791,455.078,32.227,35.645,90.332,-0.977
1687428442.795,217.773,32.715,39.062,55.176,-42.480
1687428442.799,-252.930,28.320,33.691,-25.391,-18.555
1687428442.802,-321.289,25.879,32.715,-32.227,19.043
1687428442.806,70.801,31.250,28.809,38.574,105.957
1687428442.810,447.266,32.227,25.879,92.285,70.801
1687428442.814,284.180,27.344,32.227,64.941,-8.789
1687428442.818,-192.871,27.832,37.109,-10.742,14.648
1687428442.822,-342.773,26.367,34.180,-31.738,45.898
1687428442.826,0.000,22.461,28.320,27.832,86.426
1687428442.830,417.969,24.414,26.855,94.727,34.668
1687428442.834,320.312,27.344,33.691,76.660,-4.395
1687428442.838,-162.109,23.438,36.133,-6.836,-10.742
1687428442.842,-366.699,19.043,35.645,-35.156,-44.922
1687428442.845,-64.941,18.555,37.598,7.324,-31.738
1687428442.849,378.418,21.484,36.621,77.148,-30.762
1687428442.853,353.516,24.902,38.574,81.055,2.441
1687428442.857,-114.746,23.926,37.109,-5.371,2.441
1687428442.861,-369.629,21.973,36.621,-40.527,-15.625
1687428442.865,-114.258,24.902,41.016,8.301,-9.766
1687428442.869,344.238,22.461,37.598,83.008,5.371
1687428442.873,404.785,22.461,34.668,91.797,7.324
1687428442.877,-35.645,25.879,39.551,13.672,-41.504
1687428442.881,-360.840,20.508,39.062,-35.156,-42.969
1687428442.885,-170.410,19.043,36.133,-7.324,0.000
1687428442.888,292.969,19.043,33.691,63.965,-5.859
1687428442.892,428.223,19.531,32.227,95.215,-26.367
1687428442.896,27.344,27.344,38.574,25.391,-32.715
1687428442.900,-338.379,27.344,41.504,-33.691,3.906
1687428442.904,-200.684,21.973,29.297,-10.254,31.738
1687428442.908,262.695,27.344,23.926,60.059,-5.371
1687428442.912,457.520,25.391,26.367,94.727,1.465
1687428442.916,91.309,27.344,33.691,32.715,58.105
1687428442.920,-323.242,30.273,35.645,-40.527,48.828
1687428442.924,-259.766,24.414,27.832,-32.227,13.184
1687428442.927,183.594,24.902,25.879,42.480,38.086
1687428442.931,454.102,25.879,24.902,85.938,84.961
1687428442.935,145.996,25.879,29.297,29.297,26.367
1687428442.939,-305.176,27.344,34.180,-40.527,10.742
1687428442.943,-298.828,25.391,30.762,-38.086,39.551
1687428442.947,122.070,21.484,27.832,32.715,119.141
1687428442.951,438.965,22.949,30.273,92.285,92.285
1687428442.955,193.848,28.320,38.574,47.363,57.129
1687428442.959,-274.414,27.832,41.504,-32.715,56.152
1687428442.963,-329.102,27.344,33.691,-44.922,-29.297
1687428442.966,73.242,29.297,31.250,21.973,-7.812
1687428442.970,438.477,24.902,37.598,87.891,-25.391
1687428442.974,257.812,26.855,39.062,54.199,-49.316
1687428442.978,-220.215,27.832,42.480,-20.508,-12.695
1687428442.982,-346.680,23.926,41.992,-39.062,31.738
1687428442.986,4.883,23.926,34.668,20.996,100.586
1687428442.990,414.062,22.461,35.156,101.074,90.820
1687428442.994,313.965,24.902,39.551,83.984,76.172
1687428442.998,-166.016,26.855,41.992,-0.977,44.922
1687428443.002,-359.375,26.855,47.363,-30.762,49.316
1687428443.006,-53.711,26.367,43.457,21.484,44.922
1687428443.009,384.766,25.879,36.133,92.285,-19.043
1687428443.013,353.027,26.855,38.086,81.543,22.949
1687428443.017,-117.188,30.762,39.551,2.930,74.707
1687428443.021,-372.559,29.785,38.574,-35.156,50.293
1687428443.025,-113.770,28.809,38.574,9.277,17.090
1687428443.029,341.797,29.297,32.227,84.473,4.883
1687428443.033,392.578,29.297,30.762,92.285,13.672
1687428443.037,-48.828,30.762,41.504,18.555,-35.645
1687428443.041,-364.746,29.785,44.434,-33.691,-22.949
1687428443.045,-161.621,26.855,38.086,0.488,32.715
1687428443.049,298.828,25.391,36.621,82.520,-31.250
1687428443.052,417.969,28.809,37.109,100.586,-46.875
1687428443.056,15.137,30.762,40.039,24.902,20.020
1687428443.060,-349.609,29.785,37.598,-37.109,81.055
1687428443.064,-211.426,25.391,31.738,-16.602,-13.184
1687428443.068,256.348,22.949,31.250,69.336,-12.695
1687428443.072,453.125,27.344,34.668,102.539,4.395
1687428443.076,83.496,27.832,40.039,41.016,-11.230
1687428443.080,-315.918,25.391,43.457,-20.508,42.480
1687428443.084,-234.863,27.344,43.945,-8.301,6.836
1687428443.088,203.125,23.438,41.504,65.430,31.738
1687428443.091,458.984,21.973,40.527,100.098,1.465
1687428443.095,142.090,29.297,41.992,40.039,-30.762
1687428443.099,-297.852,27.344,39.062,-38.086,17.578
1687428443.103,-276.855,25.879,35.645,-30.273,8.301
1687428443.107,147.949,27.832,36.133,50.293,45.898
1687428443.111,455.078,26.855,38.574,95.703,45.898
1687428443.115,202.148,25.879,39.551,50.293,11.719
1687428443.119,-266.602,25.879,39.551,-24.902,49.805
1687428443.123,-326.660,25.879,39.062,-37.598,27.832
1687428443.127,72.754,24.414,37.109,35.156,-39.062
1687428443.131,437.500,24.414,36.133,92.773,53.711
1687428443.134,245.605,27.344,37.109,54.199,58.105
1687428443.138,-235.352,22.461,34.668,-22.949,4.883
1687428443.142,-358.398,20.020,37.109,-49.316,11.230
1687428443.146,10.742,23.438,36.621,9.277,-7.324
1687428443.150,416.504,24.414,37.109,78.613,-21.484
1687428443.154,297.852,23.438,39.551,57.617,6.348
1687428443.158,-177.734,25.391,38.086,-22.461,29.297
1687428443.162,-355.957,24.902,38.574,-49.316,-34.668
1687428443.166,-39.551,24.414,36.133,10.254,-39.062
1687428443.170,391.113,22.949,32.227,86.914,22.461
1687428443.174,355.957,25.391,32.715,79.102,-1.465
1687428443.177,-107.910,28.809,37.598,-3.906,21.973
1687428443.181,-356.445,26.367,44.434,-40.039,84.473
1687428443.185,-96.680,23.438,45.898,13.184,12.207
1687428443.189,356.934,20.996,37.109,87.402,-6.348
1687428443.193,394.531,20.996,34.180,87.891,42.480
1687428443.197,-54.688,27.344,39.062,13.672,41.016
1687428443.201,-361.328,25.879,42.480,-31.250,18.555
1687428443.205,-154.785,24.902,41.016,0.977,0.488
1687428443.209,305.176,27.344,39.062,72.266,23.438
1687428443.213,413.574,24.414,31.738,89.355,39.551
1687428443.216,-5.371,26.367,32.227,15.137,32.715
1687428443.220,-358.887,29.785,37.598,-43.457,45.898
1687428443.224,-202.148,31.250,33.691,-13.672,41.504
1687428443.228,256.836,29.297,32.715,61.035,-13.184
1687428443.232,445.801,30.273,34.180,87.402,-2.930
1687428443.236,81.055,32.715,35.156,22.461,12.207
1687428443.240,-329.102,25.391,40.527,-39.551,11.719
1687428443.244,-249.512,19.043,41.016,-20.508,-28.320
1687428443.248,204.102,20.020,30.762,53.223,-69.336
1687428443.252,458.984,22.949,27.344,96.191,-6.836
1687428443.256,138.672,26.367,34.668,44.922,44.434
1687428443.259,-301.758,26.855,38.086,-26.367,51.270
1687428443.263,-277.832,24.902,37.109,-19.043,-26.855
1687428443.267,152.832,24.414,33.691,56.152,-30.273
1687428443.271,457.031,22.949,34.668,104.980,-12.695
1687428443.275,196.289,24.902,36.133,56.641,-24.902
1687428443.279,-267.578,30.762,31.250,-20.508,-41.992
1687428443.283,-306.152,29.785,30.762,-21.484,-2.441
1687428443.287,96.680,26.855,33.203,49.805,24.414
1687428443.291,446.777,28.320,32.715,103.516,22.461
1687428443.295,253.418,30.273,33.203,63.965,6.348
1687428443.298,-228.027,33.203,29.297,-18.555,8.789
1687428443.302,-345.703,35.156,31.250,-33.691,-26.855
1687428443.306,16.113,32.227,31.738,27.832,-37.598
1687428443.310,412.598,26.855,27.832,91.309,11.230
1687428443.314,291.504,26.855,30.762,68.848,39.551
1687428443.318,-188.477,32.715,34.180,-16.602,57.129
1687428443.322,-363.281,29.297,40.039,-39.062,17.090
1687428443.326,-41.504,24.902,37.598,16.113,-39.551
1687428443.330,382.812,25.391,29.785,83.496,-59.570
1687428443.334,334.961,26.855,30.762,76.660,0.000
1687428443.338,-129.395,32.227,35.156,-4.395,30.762
1687428443.341,-367.188,30.273,36.133,-35.645,32.715
1687428443.345,-96.191,31.250,36.621,18.555,-4.395
1687428443.349,358.398,35.645,38.086,89.844,-2.930
1687428443.353,392.090,32.715,33.203,90.332,57.617
1687428443.357,-57.129,34.180,32.227,17.090,35.156
1687428443.361,-357.910,32.715,36.621,-23.438,16.602
1687428443.365,-139.648,31.738,36.621,11.230,-13.184
1687428443.369,318.848,33.691,36.133,84.961,24.414
1687428443.373,423.340,30.762,36.621,95.703,45.898
1687428443.377,2.930,29.785,40.039,18.066,16.602
1687428443.381,-352.539,30.762,44.434,-31.738,25.391
1687428443.384,-188.477,30.762,38.574,-5.371,-22.949
1687428443.388,273.926,31.738,30.273,65.918,-35.156
