timestamps,TP9,AF7,AF8,TP10,Right AUX
1689861617.318,74.219,27.832,21.484,66.895,93.262
1689861617.322,92.773,28.320,16.113,43.457,0.000
1689861617.326,89.355,32.715,20.508,44.922,20.020
1689861617.329,66.406,32.227,28.320,59.082,23.438
1689861617.333,57.617,29.785,20.996,30.762,24.414
1689861617.337,61.523,27.832,31.250,33.203,5.371
1689861617.341,33.203,28.809,48.340,48.828,26.855
1689861617.345,11.230,27.832,39.062,15.625,64.453
1689861617.349,36.133,30.762,27.344,11.719,50.293
1689861617.353,32.715,35.156,26.855,21.973,95.215
1689861617.357,-0.488,24.902,27.344,6.348,66.895
1689861617.361,-20.020,20.020,29.297,3.906,16.113
1689861617.365,19.043,21.973,24.414,6.348,29.785
1689861617.369,54.199,21.973,22.461,7.324,-1.953
1689861617.372,43.945,22.461,34.668,14.648,-40.039
1689861617.376,7.324,23.926,32.227,4.395,-26.855
1689861617.380,-4.883,35.645,27.344,20.996,28.320
1689861617.384,17.578,33.203,36.133,38.086,57.129
1689861617.388,20.996,25.879,41.016,5.371,54.199
1689861617.392,7.324,29.785,41.504,7.812,44.922
1689861617.396,-26.367,29.785,36.621,11.230,29.785
1689861617.400,-32.715,27.832,20.508,10.254,31.250
1689861617.404,-23.438,21.484,20.996,5.371,15.625
1689861617.408,-12.207,23.926,29.785,-11.230,6.348
1689861617.411,17.090,34.668,29.785,-1.953,49.805
1689861617.415,66.895,41.992,45.410,20.996,54.688
1689861617.419,25.879,31.738,42.480,-0.488,42.969
1689861617.423,-60.059,16.602,17.090,-46.875,64.453
1689861617.427,-24.414,28.809,25.391,-19.043,50.293
1689861617.431,-33.691,32.227,38.086,3.418,30.762
1689861617.435,-48.340,29.785,47.363,16.602,60.547
1689861617.439,-17.578,30.273,53.711,62.012,64.941
1689861617.443,-13.184,26.367,45.410,60.059,0.488
1689861617.447,-6.836,29.297,36.133,31.738,29.785
1689861617.450,-10.254,34.180,47.852,26.855,77.148
1689861617.454,-33.203,17.578,24.414,1.953,62.988
1689861617.458,-28.320,18.066,10.254,-7.324,36.133
1689861617.462,9.277,37.109,42.480,-4.395,43.945
1689861617.466,11.719,32.715,42.480,-17.090,16.602
1689861617.470,17.578,32.715,34.180,-9.766,2.441
1689861617.474,15.625,33.691,40.527,9.277,-40.527
1689861617.478,9.766,29.297,37.109,5.859,-23.438
1689861617.482,12.695,21.973,33.203,8.789,53.711
1689861617.486,8.789,20.508,42.480,12.207,10.742
1689861617.490,-0.977,20.996,39.062,35.645,11.230
1689861617.493,-2.930,19.043,40.527,76.172,-0.488
1689861617.497,-3.418,17.578,43.945,107.422,-15.625
1689861617.501,-10.254,14.648,36.621,119.141,-2.930
1689861617.505,1.465,17.578,32.227,63.965,25.391
1689861617.509,21.973,18.555,35.156,7.812,44.922
1689861617.513,39.551,34.668,44.434,-27.832,-0.977
1689861617.517,49.316,42.480,47.363,-27.832,-17.578
1689861617.521,63.477,30.762,41.016,-14.160,-33.203
1689861617.525,60.547,29.785,27.832,-11.719,-21.484
1689861617.529,56.641,32.715,24.902,-12.207,-1.953
1689861617.532,118.652,44.434,71.289,-5.371,0.488
1689861617.536,161.621,43.457,73.730,-13.672,47.852
1689861617.540,97.168,17.578,6.836,-16.113,69.824
1689861617.544,-19.043,13.672,13.184,26.367,63.965
1689861617.548,-51.270,29.785,47.852,35.156,62.988
1689861617.552,-12.695,38.086,26.855,26.367,55.664
1689861617.556,-28.809,27.344,4.883,22.461,26.367
1689861617.560,-45.898,26.855,1.953,13.184,-43.945
1689861617.564,-13.672,35.156,4.883,14.160,12.207
1689861617.568,13.184,30.273,5.859,4.395,58.594
1689861617.572,-13.672,28.809,7.324,6.836,33.691
1689861617.575,-14.648,23.926,17.090,16.113,13.672
1689861617.579,29.297,22.461,19.531,21.973,13.672
1689861617.583,31.738,23.926,23.926,40.527,24.902
1689861617.587,29.785,23.438,25.391,51.758,53.223
1689861617.591,26.855,23.926,15.625,66.895,57.129
1689861617.595,47.363,21.973,14.160,74.219,18.555
1689861617.599,60.059,21.484,15.137,63.477,42.480
1689861617.603,52.246,19.531,9.766,68.848,133.301
1689861617.607,65.430,17.090,19.043,58.105,75.195
1689861617.611,72.754,25.879,30.762,37.109,-4.395
1689861617.614,66.895,30.273,36.621,47.363,17.578
1689861617.618,55.176,30.273,43.945,49.316,8.789
1689861617.622,54.199,34.180,45.898,52.734,60.059
1689861617.626,51.758,33.691,37.109,82.520,49.316
1689861617.630,42.480,30.273,31.250,114.258,2.930
1689861617.634,40.039,30.273,35.156,152.832,-20.508
1689861617.638,50.293,30.273,28.320,113.281,-42.969
1689861617.642,58.594,32.715,21.973,-2.930,20.020
1689861617.646,52.734,29.297,18.555,-19.043,42.969
1689861617.650,47.852,31.250,15.625,15.625,0.977
1689861617.654,50.781,36.133,16.113,18.066,-12.695
1689861617.657,58.594,32.715,19.531,27.344,50.293
1689861617.661,59.570,29.785,25.391,41.016,65.430
1689861617.665,60.059,31.250,30.273,48.828,-8.301
1689861617.669,71.289,27.832,32.227,62.012,-41.016
1689861617.673,97.168,27.832,26.855,74.707,10.742
1689861617.677,108.398,31.250,31.250,68.848,41.992
1689861617.681,79.590,30.273,39.062,70.312,1.465
1689861617.685,45.410,26.855,28.809,79.590,-11.230
1689861617.689,48.828,29.297,21.973,71.777,-14.160
1689861617.693,47.852,33.691,25.879,46.875,41.504
1689861617.696,24.902,29.297,22.461,22.461,78.125
1689861617.700,31.250,32.715,23.926,25.879,62.012
1689861617.704,53.711,36.621,22.949,27.832,43.457
1689861617.708,60.547,30.762,23.926,28.320,50.781
1689861617.712,88.379,34.668,21.484,34.668,66.895
1689861617.716,123.047,30.762,14.160,41.016,84.961
1689861617.720,89.844,25.879,4.883,7.324,79.102
1689861617.724,94.238,31.738,10.254,-14.160,10.742
1689861617.728,135.742,32.715,20.996,6.348,-4.395
1689861617.732,61.035,29.297,13.184,22.949,70.801
1689861617.736,-34.668,30.273,11.719,18.555,61.035
1689861617.739,-55.664,34.180,18.555,8.301,32.715
1689861617.743,-57.617,26.855,19.043,-12.695,41.504
1689861617.747,-42.480,21.973,14.648,-12.695,30.273
1689861617.751,-4.883,32.227,7.812,26.367,27.344
1689861617.755,18.555,34.668,12.207,45.898,14.160
1689861617.759,16.602,26.855,10.254,19.531,27.832
1689861617.763,38.574,30.762,4.883,9.766,46.387
1689861617.767,44.922,31.250,8.789,26.855,34.180
1689861617.771,37.109,29.297,17.578,30.762,30.762
1689861617.775,61.035,32.227,20.508,42.480,76.660
1689861617.778,134.277,29.297,21.484,49.316,82.031
1689861617.782,194.336,28.809,23.438,63.965,36.133
1689861617.786,162.109,28.320,22.949,57.129,34.668
1689861617.790,79.102,23.438,27.344,41.016,71.777
1689861617.794,0.977,20.508,32.227,35.645,49.316
1689861617.798,-33.691,20.996,38.574,27.344,25.391
1689861617.802,-51.270,16.602,48.340,9.766,75.195
1689861617.806,-46.875,16.113,50.781,-5.859,62.012
1689861617.810,-37.109,19.531,45.410,-0.977,13.184
1689861617.814,-20.996,20.020,41.992,6.836,-40.039
1689861617.818,-6.348,21.484,49.316,12.695,14.648
1689861617.821,-8.789,21.973,54.199,28.809,70.801
1689861617.825,-7.812,17.578,57.617,28.809,57.617
1689861617.829,-3.418,13.672,68.848,22.461,-5.859
1689861617.833,3.906,6.836,79.102,38.574,9.766
1689861617.837,13.672,9.766,73.730,37.598,50.781
1689861617.841,16.113,30.762,63.477,16.602,13.672
1689861617.845,-3.418,34.180,62.012,8.301,9.766
1689861617.849,-27.832,30.762,63.477,10.254,27.344
1689861617.853,-29.785,37.109,66.895,16.113,48.828
1689861617.857,-25.879,34.180,63.477,-14.648,58.594
1689861617.860,-15.137,40.527,62.012,-62.988,56.641
1689861617.864,22.949,54.199,60.547,-68.359,65.918
1689861617.868,51.758,58.594,51.758,-57.617,39.062
1689861617.872,-28.809,50.293,57.617,-49.805,24.902
1689861617.876,-93.262,46.387,62.988,-72.266,59.082
1689861617.880,-57.129,48.340,55.176,-100.098,48.340
1689861617.884,-44.434,51.270,55.176,-83.008,26.855
1689861617.888,-37.598,54.688,54.199,-46.387,-4.883
1689861617.892,-37.598,49.805,60.059,-33.203,33.691
1689861617.896,-40.039,52.246,61.523,-33.691,83.984
1689861617.900,-58.105,56.641,55.176,-38.574,57.617
1689861617.903,-74.707,53.711,53.711,-41.504,51.270
1689861617.907,-41.504,61.035,45.898,-42.480,75.195
1689861617.911,-24.902,71.289,39.551,-47.852,59.082
1689861617.915,-27.344,68.359,38.086,-41.504,28.809
1689861617.919,10.254,70.312,37.598,-24.902,33.691
1689861617.923,14.648,72.754,38.086,-17.578,14.648
1689861617.927,-14.648,69.824,35.156,-19.531,5.371
1689861617.931,13.184,76.172,29.297,-67.383,20.996
1689861617.935,73.730,85.938,20.996,-94.727,71.777
1689861617.939,35.156,81.055,20.020,-47.852,52.246
1689861617.942,-72.266,72.754,23.926,-29.297,-30.762
1689861617.946,-98.145,78.613,19.043,-60.547,-21.973
1689861617.950,-73.242,81.055,8.301,-68.359,-54.199
1689861617.954,-55.176,80.078,2.441,-43.945,-88.867
1689861617.958,-36.133,81.543,2.441,-21.484,29.297
1689861617.962,-35.645,87.402,0.488,-29.785,80.566
1689861617.966,-28.320,92.773,-5.371,-52.246,28.320
1689861617.970,-21.484,87.891,-8.301,-75.195,22.949
1689861617.974,-16.113,88.379,-9.766,-71.289,25.879
1689861617.978,28.809,94.727,-11.230,-64.453,5.859
1689861617.982,100.586,92.285,-16.602,-69.336,7.324
1689861617.985,192.383,92.773,-21.973,-69.824,49.316
1689861617.989,177.246,91.309,-22.949,-53.711,28.320
1689861617.993,3.906,80.566,-21.973,-10.742,33.691
1689861617.997,-103.027,78.613,-25.879,12.207,113.281
1689861618.001,-36.133,79.102,-29.297,5.859,69.824
1689861618.005,60.547,76.660,-33.691,7.812,-0.977
1689861618.009,73.242,80.566,-42.480,-1.953,23.438
1689861618.013,1.953,80.078,-40.039,13.672,54.199
1689861618.017,3.418,73.242,-40.527,21.973,51.758
1689861618.021,33.691,73.242,-48.340,-1.465,64.453
1689861618.024,59.082,74.707,-47.852,15.137,33.203
1689861618.028,67.383,69.824,-40.527,32.227,41.992
1689861618.032,76.660,74.219,-38.574,22.461,-1.953
1689861618.036,113.770,81.543,-44.922,30.762,-27.832
1689861618.040,99.121,78.613,-42.480,73.242,5.371
1689861618.044,110.840,77.637,-44.922,62.012,-19.043
1689861618.048,139.648,75.684,-47.363,15.137,-34.180
1689861618.052,145.020,71.289,-42.969,16.602,49.805
1689861618.056,191.895,68.848,-44.434,48.828,3.906
1689861618.060,229.980,67.383,-45.410,106.445,-29.297
1689861618.064,157.227,58.105,-35.156,172.363,41.992
1689861618.067,127.930,60.547,-24.902,126.953,-11.230
1689861618.071,124.023,60.547,-25.879,46.875,11.719
1689861618.075,79.590,51.758,-23.926,58.594,60.547
1689861618.079,125.000,52.734,-23.926,62.012,10.254
1689861618.083,157.715,47.363,-23.438,78.613,21.973
1689861618.087,123.535,44.434,-17.578,74.219,2.930
1689861618.091,112.793,43.945,-16.113,67.383,0.977
1689861618.095,136.230,45.898,-17.090,88.867,49.805
1689861618.099,143.066,44.922,-10.742,108.887,40.039
1689861618.103,132.324,41.992,-3.418,113.770,-21.973
1689861618.106,131.348,43.945,-4.883,89.844,-38.086
1689861618.110,155.273,44.434,-8.789,84.473,22.949
1689861618.114,182.129,44.434,-4.883,98.633,45.898
1689861618.118,163.086,42.480,2.930,108.398,22.461
1689861618.122,115.723,36.621,4.883,84.961,27.832
1689861618.126,119.629,32.715,6.836,70.312,10.254
1689861618.130,171.875,33.203,8.789,87.402,8.789
1689861618.134,183.594,31.250,10.254,99.121,40.039
1689861618.138,126.953,21.484,17.578,94.727,45.898
1689861618.142,92.285,18.555,21.484,90.332,86.426
1689861618.146,71.289,18.555,22.949,79.590,85.449
1689861618.149,70.801,22.461,22.461,58.594,11.719
1689861618.153,81.543,24.902,22.949,47.363,7.812
1689861618.157,89.844,25.391,25.879,58.105,10.254
1689861618.161,94.727,26.367,23.438,77.148,25.391
1689861618.165,96.191,25.391,20.020,100.586,-0.488
1689861618.169,91.797,21.973,22.949,137.207,12.695
1689861618.173,91.797,21.973,25.879,113.770,75.684
1689861618.177,92.285,24.414,22.461,78.125,44.434
1689861618.181,94.238,20.020,20.996,76.172,50.781
1689861618.185,93.750,18.555,23.438,90.820,32.715
1689861618.188,104.004,21.484,26.367,71.777,58.105
1689861618.192,102.051,21.484,26.367,29.785,59.082
1689861618.196,101.074,21.484,23.438,49.805,20.020
1689861618.200,118.164,20.508,25.391,70.312,39.551
1689861618.204,116.211,18.066,24.902,63.477,20.996
1689861618.208,68.359,18.555,22.461,80.566,46.387
1689861618.212,31.250,17.090,28.320,89.355,28.320
1689861618.216,28.320,16.602,32.715,70.312,-2.441
1689861618.220,36.133,21.973,24.902,61.035,47.852
1689861618.224,50.293,24.414,18.555,74.707,48.340
1689861618.228,70.801,19.531,20.996,118.652,67.383
1689861618.231,80.566,23.438,20.996,138.184,94.727
1689861618.235,64.453,23.926,20.020,80.078,84.473
1689861618.239,44.434,19.043,21.973,26.855,60.547
1689861618.243,48.340,22.461,24.902,43.457,-1.465
1689861618.247,54.688,22.461,22.461,75.684,-30.273
1689861618.251,59.082,24.902,23.438,92.285,-10.254
1689861618.255,81.055,27.832,26.367,73.730,37.109
1689861618.259,94.238,25.391,25.391,52.734,55.176
1689861618.263,77.637,22.949,23.926,63.965,36.133
1689861618.267,68.848,25.391,28.320,82.031,86.914
1689861618.270,57.617,25.879,30.762,94.238,90.820
1689861618.274,35.645,23.926,29.785,85.449,41.504
1689861618.278,61.035,29.297,28.809,81.543,26.855
1689861618.282,121.582,40.039,16.113,62.988,53.223
1689861618.286,102.051,38.574,12.207,89.355,49.316
1689861618.290,55.176,18.555,33.203,114.258,10.742
1689861618.294,41.016,11.230,41.504,51.758,27.344
1689861618.298,21.973,15.625,39.551,25.879,46.387
1689861618.302,0.488,17.578,37.109,65.430,47.852
1689861618.306,-3.418,20.508,35.156,84.961,-15.625
1689861618.310,14.160,23.926,33.691,58.594,-40.527
1689861618.313,20.020,26.367,28.809,21.484,5.859
1689861618.317,38.086,21.973,29.785,31.738,0.977
1689861618.321,47.363,20.020,32.227,52.246,3.418
1689861618.325,48.340,24.902,39.551,81.055,71.289
1689861618.329,46.875,25.391,43.945,92.285,52.246
1689861618.333,57.129,23.926,41.504,81.543,30.762
1689861618.337,77.148,25.879,39.551,84.473,29.297
1689861618.341,74.707,24.414,41.016,50.293,-38.574
1689861618.345,39.062,21.973,43.945,43.457,29.785
1689861618.349,23.438,21.484,41.504,49.316,55.176
1689861618.352,24.902,20.020,36.621,33.203,17.578
1689861618.356,32.227,22.461,35.156,41.992,56.152
1689861618.360,68.848,23.926,38.574,62.988,34.668
1689861618.364,54.199,24.902,41.504,58.594,42.969
1689861618.368,16.113,25.391,41.504,62.012,53.711
1689861618.372,6.836,24.902,40.039,52.734,-4.883
1689861618.376,15.625,28.320,38.086,24.902,26.855
1689861618.380,38.574,23.926,39.551,30.762,54.688
1689861618.384,47.363,18.066,41.016,48.828,62.012
1689861618.388,26.855,17.090,41.504,55.664,58.105
1689861618.392,20.020,17.090,39.551,41.504,10.742
1689861618.395,16.113,27.832,33.203,24.902,45.898
1689861618.399,26.855,32.227,33.203,20.020,78.125
1689861618.403,47.852,30.762,35.645,26.367,41.992
1689861618.407,26.367,28.809,36.133,41.992,10.742
1689861618.411,0.000,24.414,36.621,42.969,28.320
1689861618.415,0.977,23.926,33.691,45.410,-13.672
1689861618.419,14.648,25.879,30.762,47.363,-18.066
1689861618.423,20.508,29.785,27.832,40.527,-8.789
1689861618.427,13.672,30.273,31.738,47.363,-24.902
1689861618.431,20.996,26.367,35.156,62.012,10.254
1689861618.434,29.297,24.414,30.273,64.453,12.695
1689861618.438,17.090,23.926,38.086,65.430,33.691
1689861618.442,15.625,29.297,43.457,47.852,26.367
1689861618.446,33.691,27.832,36.133,17.578,45.410
1689861618.450,49.316,27.832,32.715,29.785,59.570
1689861618.454,61.035,35.645,36.621,50.293,62.500
1689861618.458,52.734,33.203,41.504,62.500,63.477
1689861618.462,42.969,31.250,43.457,53.711,30.762
1689861618.466,89.844,36.133,41.992,66.895,24.414
1689861618.470,68.848,37.598,42.969,97.656,14.648
1689861618.473,-0.977,35.645,44.434,-11.719,17.578
1689861618.477,11.230,37.109,44.434,-59.082,-21.973
1689861618.481,48.340,38.086,46.387,13.184,21.484
1689861618.485,34.668,34.668,46.875,41.504,41.016
1689861618.489,-0.977,34.668,43.945,32.715,-41.504
1689861618.493,20.020,34.180,42.969,39.062,-4.395
1689861618.497,61.035,35.156,43.457,51.758,97.168
1689861618.501,81.543,42.480,41.992,13.672,29.297
1689861618.505,39.062,38.086,42.480,0.977,-25.391
1689861618.509,-29.785,33.691,42.969,-10.254,23.926
1689861618.513,-22.949,39.062,39.551,6.348,10.742
1689861618.516,15.137,38.086,35.645,34.668,51.758
1689861618.520,20.996,34.180,36.621,62.988,86.914
1689861618.524,28.809,36.133,38.574,83.496,52.734
1689861618.528,26.367,38.086,38.574,27.344,24.414
1689861618.532,25.879,41.504,38.574,3.418,20.020
1689861618.536,34.668,42.480,39.062,42.480,22.949
1689861618.540,36.133,38.086,38.574,40.039,19.531
1689861618.544,38.574,37.109,38.086,7.324,46.875
1689861618.548,30.273,35.156,38.086,3.906,-13.184
1689861618.552,26.367,31.738,41.016,66.895,-4.883
1689861618.555,35.645,30.762,41.992,82.031,20.508
1689861618.559,32.227,34.668,40.039,-5.859,12.207
1689861618.563,28.320,36.133,37.109,-21.973,47.852
1689861618.567,18.066,32.227,37.109,18.555,57.129
1689861618.571,29.297,30.762,37.598,34.668,62.500
1689861618.575,70.801,32.227,38.086,72.266,71.289
1689861618.579,50.781,31.738,43.945,76.172,64.941
1689861618.583,-3.906,29.785,47.852,18.555,84.473
1689861618.587,5.859,26.367,43.457,17.090,101.074
1689861618.591,34.180,25.391,43.457,23.926,26.855
1689861618.595,19.043,34.180,48.828,40.527,-50.781
1689861618.598,13.672,35.645,47.363,62.500,3.418
1689861618.602,28.320,34.668,41.016,21.973,31.738
1689861618.606,37.598,35.156,41.504,22.461,39.551
1689861618.610,40.039,32.227,45.410,42.480,41.504
1689861618.614,51.270,33.203,43.457,50.293,7.812
1689861618.618,54.199,35.156,37.109,73.730,36.133
1689861618.622,62.988,34.668,40.039,54.199,0.977
1689861618.626,62.500,33.691,51.270,19.531,11.719
1689861618.630,65.918,32.715,50.293,15.137,92.773
1689861618.634,64.453,32.227,44.434,20.996,44.434
1689861618.637,56.152,34.668,41.504,13.184,48.828
1689861618.641,61.523,40.039,41.504,10.254,68.359
1689861618.645,58.105,41.016,41.016,11.719,38.574
1689861618.649,56.641,38.086,39.551,3.418,57.129
1689861618.653,26.367,35.156,43.945,13.184,42.480
1689861618.657,10.254,36.133,49.805,30.273,5.859
1689861618.661,23.438,37.109,49.316,68.848,16.113
1689861618.665,21.484,31.250,46.387,96.680,55.664
1689861618.669,21.484,25.879,45.898,77.148,58.105
1689861618.673,33.203,27.832,46.875,68.359,51.270
1689861618.677,26.367,32.227,45.898,84.473,5.371
1689861618.680,18.555,35.645,42.969,49.316,26.367
1689861618.684,41.504,36.133,44.434,0.488,20.996
1689861618.688,51.270,37.109,43.945,22.949,-41.016
1689861618.692,54.688,39.062,39.062,37.598,2.441
1689861618.696,95.215,38.086,34.180,33.691,34.180
1689861618.700,65.430,36.133,38.574,60.547,61.523
1689861618.704,5.859,37.109,44.922,38.574,62.012
1689861618.708,14.648,33.691,43.457,-3.418,60.547
1689861618.712,17.578,31.738,39.062,20.020,54.688
1689861618.716,-2.930,42.480,39.062,47.363,22.949
1689861618.719,-9.766,43.457,41.992,44.922,48.340
1689861618.723,7.324,34.180,40.527,14.160,22.949
1689861618.727,33.691,38.574,40.527,11.719,-13.672
1689861618.731,48.340,40.039,41.016,41.992,-37.598
1689861618.735,18.066,37.109,42.480,56.641,-28.809
1689861618.739,-3.906,35.645,43.945,9.277,32.715
1689861618.743,8.301,41.992,43.945,-20.508,14.160
1689861618.747,20.996,46.875,46.875,38.086,-3.906
1689861618.751,42.969,42.480,51.758,78.125,58.105
1689861618.755,44.922,38.086,49.805,55.664,100.586
1689861618.759,10.742,31.738,44.922,7.812,76.172
1689861618.762,8.301,34.180,46.387,-24.902,83.496
1689861618.766,35.156,37.109,47.363,8.789,75.195
1689861618.770,47.363,35.156,46.387,41.992,32.715
1689861618.774,22.949,35.156,50.781,77.148,-25.879
1689861618.778,9.766,36.133,51.270,106.934,15.625
1689861618.782,24.902,37.109,52.246,104.004,-8.301
1689861618.786,29.785,37.598,53.711,91.309,-34.668
1689861618.790,36.133,38.574,46.387,-7.324,13.672
1689861618.794,27.832,41.016,44.434,29.785,1.953
1689861618.798,19.531,39.062,47.363,119.629,1.953
1689861618.801,23.926,34.668,44.922,-17.090,27.832
1689861618.805,36.621,37.109,46.387,-83.008,74.219
1689861618.809,27.344,38.086,53.223,9.766,46.387
1689861618.813,18.555,36.621,50.293,26.855,29.297
1689861618.817,27.344,32.715,44.434,-19.531,46.387
1689861618.821,33.203,31.250,48.340,-9.766,16.113
1689861618.825,43.945,33.691,50.293,8.301,34.668
1689861618.829,40.527,35.156,45.410,1.953,53.711
1689861618.833,16.602,34.180,46.387,-9.277,61.523
1689861618.837,45.898,32.227,52.246,9.766,66.895
1689861618.841,67.871,35.156,52.734,33.691,43.945
1689861618.844,-1.953,30.762,53.223,14.648,40.527
1689861618.848,-21.973,31.250,54.688,-12.695,18.555
1689861618.852,7.324,36.133,54.199,3.418,-15.137
1689861618.856,17.090,36.621,54.199,40.527,-11.719
1689861618.860,23.926,35.156,57.129,21.973,-36.621
1689861618.864,25.879,35.645,57.617,-17.090,0.977
1689861618.868,36.133,36.621,50.293,-4.395,61.035
1689861618.872,31.250,36.133,48.828,18.555,47.363
1689861618.876,13.672,34.180,50.293,2.441,27.832
1689861618.880,20.996,33.203,50.293,-19.531,20.020
1689861618.883,29.297,36.133,50.781,-21.973,40.039
1689861618.887,41.992,36.621,48.340,-19.531,6.348
1689861618.891,68.848,37.109,45.898,34.180,39.062
1689861618.895,72.266,39.062,45.898,34.180,57.129
1689861618.899,48.340,40.527,45.898,20.508,41.992
1689861618.903,23.926,39.062,46.387,40.039,28.320
1689861618.907,32.227,39.062,49.805,40.039,23.438
1689861618.911,50.781,40.039,54.199,37.598,47.363
1689861618.915,66.406,39.551,53.711,1.953,60.059
1689861618.919,41.504,40.527,50.781,1.465,30.273
1689861618.923,-17.578,32.715,51.758,45.898,40.527
1689861618.926,2.441,29.297,55.176,40.039,76.172
1689861618.930,23.438,32.715,56.641,17.578,59.082
1689861618.934,1.953,33.691,55.664,26.855,75.195
1689861618.938,12.695,36.133,56.641,38.086,69.824
1689861618.942,24.902,40.527,60.547,59.082,13.184
1689861618.946,32.227,38.574,58.105,81.055,18.066
1689861618.950,38.574,38.086,56.641,39.062,26.855
1689861618.954,46.387,37.598,62.988,21.484,55.664
1689861618.958,44.922,34.180,65.430,44.922,75.684
1689861618.962,56.641,38.086,62.988,38.086,-0.488
1689861618.965,91.797,38.086,57.617,39.062,16.113
1689861618.969,95.215,33.691,59.082,57.129,46.875
1689861618.973,39.551,32.715,61.523,51.758,40.039
1689861618.977,-18.555,33.691,60.547,36.621,78.125
1689861618.981,-16.113,33.203,60.059,44.434,61.523
1689861618.985,2.930,34.180,57.617,43.457,30.762
1689861618.989,9.766,32.715,61.035,57.129,13.672
1689861618.993,1.953,33.203,59.082,42.480,12.207
1689861618.997,-0.488,33.691,52.734,3.906,22.461
1689861619.001,6.348,29.785,53.223,26.855,18.555
1689861619.005,15.137,27.344,51.758,61.523,32.227
1689861619.008,16.113,26.367,53.711,78.125,2.441
1689861619.012,20.996,23.926,57.617,75.684,-2.930
1689861619.016,35.645,26.855,51.758,32.227,22.461
1689861619.020,30.762,28.809,51.270,-10.254,26.855
1689861619.024,14.160,30.273,58.105,40.527,33.203
1689861619.028,39.062,28.809,54.688,77.148,-0.977
1689861619.032,64.453,26.855,52.246,38.574,16.113
1689861619.036,86.426,34.180,52.246,24.902,13.184
1689861619.040,73.730,35.645,53.223,73.730,32.715
1689861619.044,43.457,35.645,56.152,72.266,68.848
1689861619.047,46.387,40.039,54.688,29.297,102.051
1689861619.051,48.828,39.062,50.781,33.691,109.375
1689861619.055,52.246,38.574,53.223,44.434,60.547
1689861619.059,17.578,36.133,56.152,55.176,60.059
1689861619.063,-28.809,30.273,55.176,83.008,46.875
1689861619.067,-18.555,30.762,54.688,89.844,22.461
1689861619.071,16.113,34.668,55.176,108.887,81.543
1689861619.075,44.434,36.621,55.176,75.684,52.734
1689861619.079,86.426,39.062,48.828,45.898,7.812
1689861619.083,120.117,38.574,48.828,85.449,53.711
1689861619.087,76.172,35.156,56.152,53.223,3.906
1689861619.090,2.441,36.621,55.176,16.602,-6.348
1689861619.094,17.090,43.945,49.316,1.953,55.664
1689861619.098,96.191,46.875,42.969,15.625,18.555
1689861619.102,106.934,43.945,42.480,65.430,3.418
1689861619.106,19.531,42.480,47.852,77.637,49.316
1689861619.110,-41.992,35.156,48.340,-9.277,33.203
1689861619.114,-17.090,31.250,49.316,-45.410,1.953
1689861619.118,40.039,38.086,49.316,4.883,33.203
1689861619.122,83.496,41.992,46.875,10.254,21.973
1689861619.126,47.363,38.086,51.758,36.133,27.344
1689861619.129,-13.672,34.180,53.223,66.406,53.223
1689861619.133,-5.371,32.227,49.805,48.340,11.719
1689861619.137,15.137,29.297,50.781,65.430,-18.066
1689861619.141,3.418,29.297,52.246,19.043,-43.945
1689861619.145,12.695,35.156,49.316,-67.871,1.953
1689861619.149,63.965,38.086,44.434,-15.625,95.703
1689861619.153,31.250,33.691,42.969,45.898,105.469
1689861619.157,-19.043,34.668,41.992,37.109,53.223
1689861619.161,-0.977,33.691,44.922,56.152,-0.977
1689861619.165,11.719,32.227,49.805,41.016,13.672
1689861619.169,20.996,35.156,51.270,-18.555,43.457
1689861619.172,25.879,38.086,49.805,-21.484,8.301
1689861619.176,21.973,36.621,49.316,15.625,-67.383
1689861619.180,16.113,30.273,53.223,79.590,-48.340
1689861619.184,33.203,33.203,56.641,84.961,37.109
1689861619.188,59.082,38.574,53.711,8.301,4.883
1689861619.192,32.227,34.668,49.805,-16.113,-34.180
1689861619.196,3.906,34.180,50.781,46.875,-1.953
1689861619.200,23.926,34.180,49.805,61.035,42.480
1689861619.204,60.547,33.203,47.852,-0.977,43.945
1689861619.208,73.730,34.668,48.340,9.766,51.758
1689861619.211,48.828,31.738,49.805,70.801,53.711
1689861619.215,4.395,30.762,50.293,47.363,34.180
1689861619.219,-0.488,32.227,49.805,-6.348,36.133
1689861619.223,10.254,26.367,47.852,9.766,26.367
1689861619.227,20.508,24.414,47.852,24.902,35.645
1689861619.231,33.691,32.227,47.363,35.645,121.582
1689861619.235,24.414,32.227,46.387,78.125,55.664
1689861619.239,15.625,28.809,45.898,78.613,18.555
1689861619.243,19.043,32.715,46.387,33.691,65.918
1689861619.247,41.992,38.574,46.387,55.176,22.461
1689861619.251,86.426,38.574,45.410,51.270,58.105
1689861619.254,114.258,40.039,42.480,-4.395,19.043
1689861619.258,73.730,39.551,40.039,10.254,-12.207
1689861619.262,-13.184,36.133,43.945,62.012,22.949
1689861619.266,-3.906,31.250,45.898,85.938,3.906
1689861619.270,13.184,28.809,44.922,82.520,-21.484
1689861619.274,6.348,33.691,43.457,40.527,13.184
1689861619.278,13.184,37.109,45.410,15.625,34.668
1689861619.282,11.230,36.621,45.410,3.906,9.277
1689861619.286,21.973,36.133,42.969,5.859,-20.508
1689861619.290,28.320,31.250,40.527,37.598,3.418
1689861619.293,28.320,33.691,41.504,62.012,24.414
1689861619.297,24.414,36.133,45.898,37.109,14.160
1689861619.301,25.879,33.203,41.992,12.695,24.902
1689861619.305,35.156,35.645,39.062,37.109,84.473
1689861619.309,34.668,34.668,44.434,70.801,103.516
1689861619.313,39.062,31.738,47.852,64.941,54.688
1689861619.317,68.359,34.180,41.992,23.438,17.090
1689861619.321,71.777,37.598,38.086,25.879,-23.926
1689861619.325,46.875,37.109,41.016,68.359,19.531
1689861619.329,41.992,39.551,42.969,47.852,91.309
1689861619.333,-6.348,38.086,42.480,20.996,52.734
1689861619.336,-29.297,32.715,42.480,15.625,38.086
1689861619.340,0.000,32.227,41.504,32.227,46.875
1689861619.344,4.883,35.156,42.480,35.645,33.691
1689861619.348,16.602,36.133,45.898,35.156,20.508
1689861619.352,37.598,36.133,48.828,42.969,4.883
1689861619.356,36.621,39.062,52.734,47.363,-1.953
1689861619.360,35.156,40.527,52.246,62.988,-6.836
1689861619.364,43.457,41.016,49.805,32.715,7.324
1689861619.368,64.453,42.480,54.199,21.484,2.441
1689861619.372,75.195,42.480,54.199,46.875,-12.207
1689861619.375,62.012,40.527,49.805,23.438,45.898
1689861619.379,47.852,39.551,46.875,18.555,46.875
1689861619.383,77.148,40.527,42.969,38.086,59.082
1689861619.387,103.516,39.551,43.945,56.152,24.414
1689861619.391,68.359,37.109,42.969,73.730,16.113
1689861619.395,1.953,35.645,43.945,103.027,-13.672
1689861619.399,17.578,36.133,45.898,59.570,-83.984
1689861619.403,47.852,37.109,50.781,15.625,16.113
1689861619.407,16.113,35.645,53.711,37.598,80.078
1689861619.411,5.859,34.668,50.293,63.477,29.785
1689861619.415,21.973,34.668,48.828,47.363,51.270
1689861619.418,27.344,36.133,49.805,41.016,44.434
1689861619.422,23.926,36.621,51.270,45.410,47.852
1689861619.426,39.062,38.086,48.340,40.039,81.055
1689861619.430,41.504,37.109,47.363,107.910,20.508
1689861619.434,51.270,41.504,51.270,103.027,-13.184
1689861619.438,59.082,45.898,50.781,9.766,8.301
1689861619.442,40.039,42.969,54.199,11.230,41.992
1689861619.446,46.875,42.480,56.641,31.250,65.430
1689861619.450,49.805,47.363,49.805,65.918,76.660
1689861619.454,44.434,49.805,47.852,88.867,30.273
1689861619.457,66.895,49.316,46.875,54.199,-11.230
1689861619.461,60.059,50.293,42.969,12.695,57.617
1689861619.465,60.059,51.758,44.434,21.484,13.672
1689861619.469,76.660,55.664,42.969,36.133,12.695
1689861619.473,67.871,51.758,40.527,22.461,56.641
1689861619.477,55.176,47.363,41.016,17.090,17.090
1689861619.481,39.551,47.852,39.551,-5.859,60.059
1689861619.485,49.316,41.016,42.480,26.367,44.922
1689861619.489,64.941,41.992,40.527,93.750,58.105
1689861619.493,36.621,49.805,41.016,78.125,50.293
1689861619.497,7.812,49.805,48.340,46.875,19.531
1689861619.500,0.977,46.387,50.293,85.938,22.949
1689861619.504,-6.348,44.922,49.805,41.992,11.230
1689861619.508,-14.160,44.434,50.781,12.207,53.223
1689861619.512,3.418,48.340,50.293,24.902,40.039
1689861619.516,33.691,48.340,45.898,29.785,-2.441
1689861619.520,44.434,48.340,49.805,55.176,7.324
1689861619.524,29.297,45.410,47.363,61.523,11.719
1689861619.528,23.926,43.457,41.504,61.035,-1.465
1689861619.532,36.133,42.969,41.016,44.922,15.137
1689861619.536,32.715,40.039,39.062,64.453,42.969
1689861619.539,17.578,38.574,44.434,84.473,64.453
1689861619.543,29.297,38.086,47.852,41.504,89.844
1689861619.547,41.992,37.109,43.945,20.020,42.969
1689861619.551,33.691,41.016,44.922,28.320,-2.930
1689861619.555,43.945,47.363,44.434,37.109,51.758
1689861619.559,77.148,49.805,41.016,65.430,20.020
1689861619.563,88.867,49.316,41.504,96.680,-44.922
1689861619.567,68.359,46.387,43.945,85.449,16.602
1689861619.571,38.086,41.504,50.781,62.012,29.297
1689861619.575,34.668,42.480,53.223,39.062,9.766
1689861619.579,51.758,47.852,48.828,43.457,39.062
1689861619.582,39.551,47.852,47.852,72.266,31.250
1689861619.586,29.785,46.875,44.434,65.918,-13.672
1689861619.590,41.992,49.316,36.621,75.684,-27.832
1689861619.594,61.035,53.711,28.320,42.480,17.578
1689861619.598,58.105,51.758,26.367,70.312,25.879
1689861619.602,28.320,41.504,47.363,47.852,-0.977
1689861619.606,30.762,37.109,66.406,-21.484,31.738
1689861619.610,27.344,38.574,65.918,25.391,63.965
1689861619.614,25.391,39.062,69.336,88.867,13.184
1689861619.618,21.973,38.574,69.336,72.754,14.160
1689861619.621,37.598,43.457,62.988,4.395,97.168
1689861619.625,49.316,44.434,62.500,24.902,44.434
1689861619.629,21.484,40.527,62.988,23.926,32.715
1689861619.633,21.484,42.969,59.570,20.508,71.289
1689861619.637,26.367,44.922,56.152,52.246,30.273
1689861619.641,49.805,45.410,58.105,40.039,-29.297
1689861619.645,58.105,46.875,58.105,41.992,2.930
1689861619.649,51.270,46.875,55.176,59.570,79.102
1689861619.653,48.340,43.457,56.152,81.055,53.711
1689861619.657,30.762,41.016,60.059,54.688,-10.742
1689861619.660,27.832,41.992,55.664,-21.484,-31.250
1689861619.664,14.648,40.039,53.223,6.348,0.000
1689861619.668,25.879,42.480,62.500,81.055,21.973
1689861619.672,26.855,42.969,62.012,86.426,0.488
1689861619.676,21.484,37.598,57.129,28.809,42.969
1689861619.680,34.668,40.039,55.176,21.973,64.453
1689861619.684,37.598,40.527,47.852,50.293,35.645
1689861619.688,41.992,39.551,45.898,18.555,35.645
1689861619.692,54.688,38.574,43.945,30.762,25.879
1689861619.696,58.594,37.598,44.922,66.895,35.156
1689861619.700,56.152,40.527,45.898,26.367,99.609
1689861619.703,73.730,42.480,42.969,-6.348,51.758
1689861619.707,58.594,47.363,42.480,28.320,3.418
1689861619.711,48.340,48.828,44.922,43.457,9.277
1689861619.715,48.828,42.480,49.805,64.941,-51.758
1689861619.719,11.230,38.086,47.852,89.844,1.953
1689861619.723,40.039,39.062,43.945,69.336,105.469
1689861619.727,71.289,43.457,49.805,71.777,25.391
1689861619.731,19.043,42.480,48.340,35.156,20.020
1689861619.735,8.301,43.457,43.457,-4.883,65.430
1689861619.739,36.133,43.457,45.898,30.762,34.668
1689861619.742,33.691,41.016,43.457,59.082,-20.020
1689861619.746,22.461,37.109,41.504,97.168,20.508
1689861619.750,23.926,36.133,40.527,82.031,64.453
1689861619.754,38.574,41.992,39.062,20.020,-13.672
1689861619.758,42.480,44.434,40.039,48.828,23.926
1689861619.762,32.715,44.434,43.945,63.477,-7.324
1689861619.766,40.039,46.387,45.410,33.691,36.133
1689861619.770,40.527,44.922,45.410,40.527,61.523
1689861619.774,31.738,41.504,49.805,53.711,40.527
1689861619.778,34.180,45.898,49.805,31.738,72.266
1689861619.782,51.270,49.316,43.457,65.430,49.316
1689861619.785,60.547,46.387,44.434,49.316,34.668
1689861619.789,25.391,45.410,44.434,42.480,45.410
1689861619.793,14.160,42.480,41.016,68.848,38.574
1689861619.797,27.832,40.527,42.969,30.273,11.230
1689861619.801,5.371,43.457,43.457,32.715,68.359
1689861619.805,-2.441,42.480,43.457,25.879,86.914
1689861619.809,25.879,41.992,45.410,16.113,22.949
1689861619.813,34.180,40.527,41.016,64.941,82.031
1689861619.817,26.367,40.527,43.457,114.258,78.125
1689861619.821,14.160,41.992,47.363,65.918,92.773
1689861619.824,20.996,42.969,42.969,13.184,79.590
1689861619.828,30.273,44.434,44.434,-4.883,11.230
1689861619.832,37.109,44.922,46.875,9.766,22.949
1689861619.836,41.016,48.340,42.969,35.645,18.555
1689861619.840,30.273,43.457,42.969,71.777,-10.254
1689861619.844,27.344,39.062,45.410,94.727,31.250
1689861619.848,38.574,42.969,41.504,44.434,41.504
1689861619.852,32.715,45.898,39.551,2.441,33.203
1689861619.856,21.484,47.363,44.434,18.555,47.852
1689861619.860,43.457,45.898,46.875,53.711,42.969
1689861619.864,63.965,45.898,47.363,92.773,7.812
1689861619.867,22.949,44.922,43.945,48.340,12.695
1689861619.871,0.000,40.527,36.133,-5.859,13.184
1689861619.875,37.598,39.062,35.645,43.945,39.062
1689861619.879,35.645,39.062,39.062,114.746,82.520
1689861619.883,35.645,45.898,35.156,73.242,21.973
1689861619.887,15.137,48.828,34.180,-17.578,26.367
1689861619.891,-20.996,45.410,39.062,7.324,44.434
1689861619.895,-10.742,50.293,39.551,23.438,7.324
1689861619.899,15.137,54.688,39.551,27.832,10.742
1689861619.903,32.227,49.316,37.109,61.523,30.273
1689861619.906,40.039,48.828,34.180,32.715,52.246
1689861619.910,45.410,49.805,35.156,37.598,-19.531
1689861619.914,52.246,48.828,33.691,54.199,-20.508
1689861619.918,52.734,51.758,34.668,54.199,87.402
1689861619.922,57.617,53.711,35.645,89.844,37.109
1689861619.926,60.059,54.688,32.715,76.660,7.812
1689861619.930,56.152,50.781,34.668,34.668,43.945
1689861619.934,89.355,53.223,39.062,22.949,-20.996
1689861619.938,83.496,56.641,42.969,54.199,-24.902
1689861619.942,62.988,51.758,39.062,63.477,20.996
1689861619.946,56.641,51.758,35.156,72.266,-11.230
1689861619.949,41.504,49.316,36.133,66.406,4.883
1689861619.953,37.598,45.898,37.109,20.996,86.426
1689861619.957,30.762,49.316,41.504,53.711,58.105
1689861619.961,48.828,45.898,42.969,57.617,24.902
1689861619.965,65.918,43.457,49.805,77.637,-29.297
1689861619.969,46.875,42.480,51.270,90.332,-49.805
1689861619.973,14.648,40.527,40.039,24.902,57.617
1689861619.977,8.789,37.109,37.109,8.789,85.938
1689861619.981,19.531,37.598,44.434,67.871,24.414
1689861619.985,30.762,40.527,48.340,104.980,46.387
1689861619.988,45.898,40.039,38.086,40.039,45.898
1689861619.992,46.875,43.457,37.598,14.160,48.340
1689861619.996,41.992,44.922,39.551,40.527,46.387
1689861620.000,27.344,40.039,37.598,34.668,17.578
1689861620.004,30.273,40.039,36.621,-0.977,12.207
1689861620.008,54.199,45.898,31.738,11.230,20.508
1689861620.012,58.105,43.457,32.715,50.293,-12.695
1689861620.016,77.148,41.992,41.016,73.242,-23.926
1689861620.020,103.516,41.504,43.945,82.031,52.734
1689861620.024,44.434,35.645,48.828,88.867,84.473
1689861620.028,15.137,37.598,48.340,59.570,22.461
1689861620.031,29.297,39.551,43.945,22.461,20.996
1689861620.035,44.434,35.156,44.922,14.648,1.953
1689861620.039,46.875,32.227,43.457,39.551,30.273
1689861620.043,1.953,30.762,39.551,45.410,85.449
1689861620.047,3.418,31.738,36.133,46.387,61.523
1689861620.051,22.461,35.156,37.598,71.289,19.531
1689861620.055,6.348,38.086,37.598,49.316,-19.531
1689861620.059,-3.418,41.992,35.156,54.688,20.508
1689861620.063,16.113,42.969,37.109,47.852,41.504
1689861620.067,20.996,40.039,36.133,-5.371,33.203
1689861620.070,10.254,37.598,34.180,40.527,21.484
1689861620.074,19.531,42.969,33.691,60.547,32.227
1689861620.078,23.438,41.504,36.621,11.719,67.383
1689861620.082,22.461,34.180,36.621,25.391,25.879
1689861620.086,31.250,37.598,34.668,39.062,21.484
1689861620.090,41.992,42.480,36.621,38.086,30.762
1689861620.094,54.688,44.922,34.668,57.617,56.152
1689861620.098,67.383,47.852,36.621,44.922,32.227
1689861620.102,55.664,48.828,36.133,0.488,12.695
1689861620.106,32.715,47.852,35.645,12.207,33.203
1689861620.110,33.691,48.828,35.156,45.410,43.945
1689861620.113,42.969,47.363,35.645,34.668,66.895
1689861620.117,43.945,45.410,37.598,14.160,41.016
1689861620.121,51.270,46.875,35.156,29.297,-6.348
1689861620.125,51.758,45.898,35.645,56.641,11.719
1689861620.129,60.059,38.086,37.598,49.805,91.797
1689861620.133,68.359,41.016,41.992,60.547,7.324
1689861620.137,57.617,48.828,37.109,87.891,-79.590
1689861620.141,54.199,43.945,37.598,75.195,3.906
1689861620.145,54.688,47.852,43.945,55.664,59.570
1689861620.149,59.570,53.223,42.969,64.941,45.410
1689861620.152,56.152,45.410,44.434,54.688,48.340
1689861620.156,55.664,46.387,44.922,51.758,2.930
1689861620.160,57.617,49.316,48.340,58.105,-82.031
1689861620.164,53.711,49.316,46.387,66.406,-42.969
1689861620.168,51.270,49.805,27.832,66.406,52.734
1689861620.172,59.082,68.848,11.230,62.988,70.312
1689861620.176,47.363,78.125,28.320,57.617,33.203
1689861620.180,-2.930,57.617,52.734,3.906,-9.277
1689861620.184,-26.367,49.805,46.875,-17.578,-11.719
1689861620.188,-28.320,57.617,45.898,-8.301,48.828
1689861620.192,-41.992,65.430,58.105,-29.297,71.289
1689861620.195,-72.266,65.430,64.941,-57.617,55.664
1689861620.199,-94.238,65.430,66.895,-83.496,46.387
1689861620.203,-104.492,68.848,70.801,-104.980,52.734
1689861620.207,-119.141,67.383,72.266,-119.141,65.430
1689861620.211,-126.465,54.199,83.008,-124.512,85.449
1689861620.215,-138.184,48.340,93.262,-127.441,27.832
1689861620.219,-148.926,58.105,87.891,-142.090,16.602
1689861620.223,-135.742,57.617,84.473,-141.602,56.641
1689861620.227,-129.883,47.363,92.773,-137.207,54.199
1689861620.231,-124.512,42.480,92.285,-125.977,7.324
1689861620.234,-111.816,44.922,85.938,-104.980,-33.203
1689861620.238,-112.305,37.109,90.820,-106.934,-31.250
1689861620.242,-105.469,28.809,94.238,-95.703,12.207
1689861620.246,-103.516,26.367,102.051,-73.730,51.758
1689861620.250,-108.887,11.719,107.422,-65.430,84.473
1689861620.254,-114.746,14.648,106.445,-63.477,49.805
1689861620.258,-111.816,15.137,106.934,-40.039,12.207
1689861620.262,-91.309,-2.930,107.910,-10.742,35.156
1689861620.266,-74.219,-4.883,108.887,5.371,72.266
1689861620.270,-63.965,10.742,105.469,6.348,47.852
1689861620.274,-44.922,13.672,99.121,8.789,28.809
1689861620.277,-22.949,10.742,98.633,27.832,66.406
1689861620.281,-20.508,2.930,100.098,48.828,16.602
1689861620.285,-7.812,-8.301,97.656,69.336,70.801
1689861620.289,3.906,-5.859,94.238,75.195,80.566
1689861620.293,3.906,-4.883,90.820,64.941,43.945
1689861620.297,14.160,-9.277,92.773,64.453,69.824
1689861620.301,17.578,-8.301,98.633,76.172,51.270
1689861620.305,30.273,-9.277,91.797,90.332,39.551
1689861620.309,36.621,-14.160,86.914,104.004,-22.461
1689861620.313,29.297,-11.719,88.379,116.699,22.949
1689861620.316,44.434,-8.301,87.402,121.094,105.957
1689861620.320,45.898,-12.695,78.125,108.398,86.426
1689861620.324,48.340,-12.695,77.148,107.422,79.102
1689861620.328,58.105,-11.230,83.496,124.023,23.926
1689861620.332,51.758,-16.113,83.984,128.906,-22.461
1689861620.336,49.316,-16.602,80.078,127.930,19.531
1689861620.340,55.664,-12.695,75.195,132.812,43.457
1689861620.344,68.848,-14.160,83.008,134.766,17.090
1689861620.348,80.078,-15.137,91.309,138.672,18.066
1689861620.352,75.684,-12.695,86.426,146.973,57.617
1689861620.356,76.172,-13.184,78.613,157.715,67.383
1689861620.359,80.078,-16.602,75.195,146.484,21.484
1689861620.363,78.125,-16.602,80.078,136.230,3.418
1689861620.367,83.496,-16.602,82.031,159.180,-5.371
1689861620.371,88.867,-19.043,75.684,166.016,-30.273
1689861620.375,86.914,-21.973,78.125,136.719,-11.719
1689861620.379,83.496,-16.113,85.449,123.535,86.914
1689861620.383,84.473,-11.719,83.496,139.160,95.215
1689861620.387,83.496,-18.066,82.031,140.625,28.320
1689861620.391,88.867,-16.602,77.637,141.602,0.488
1689861620.395,94.727,-15.625,71.289,144.531,4.883
1689861620.398,84.473,-16.113,72.266,133.789,18.555
1689861620.402,84.961,-9.277,65.918,124.512,-31.250
1689861620.406,90.820,-5.859,59.570,125.000,-30.273
1689861620.410,89.844,-4.883,64.453,119.629,24.414
1689861620.414,91.797,2.930,62.988,123.535,24.902
1689861620.418,90.332,4.883,57.129,120.605,53.711
1689861620.422,89.844,2.441,52.734,107.422,80.078
1689861620.426,93.750,2.930,50.293,106.934,-0.977
1689861620.430,90.332,7.324,48.340,113.281,28.809
1689861620.434,86.914,10.254,38.086,115.234,71.777
1689861620.438,86.426,11.230,35.156,100.586,-10.254
1689861620.441,88.379,9.766,39.551,98.145,33.203
1689861620.445,85.449,3.418,38.086,99.609,62.988
1689861620.449,83.008,2.441,32.715,100.586,3.418
1689861620.453,81.543,5.859,31.738,101.074,5.859
1689861620.457,68.848,10.742,29.297,83.496,0.977
1689861620.461,68.359,11.719,25.391,68.848,0.977
1689861620.465,66.406,10.254,26.367,72.754,54.688
1689861620.469,67.383,13.184,27.344,82.520,64.453
1689861620.473,64.453,17.578,26.855,81.055,39.551
1689861620.477,58.594,12.207,20.020,64.941,54.199
1689861620.480,56.641,7.812,14.160,45.410,61.035
1689861620.484,56.641,6.348,17.578,36.621,83.008
1689861620.488,60.059,5.859,22.461,39.062,42.969
1689861620.492,58.594,6.348,23.926,44.434,5.371
1689861620.496,57.617,8.301,22.461,39.062,21.973
1689861620.500,56.152,8.301,20.508,36.133,-8.789
1689861620.504,59.570,1.953,20.508,36.133,44.922
1689861620.508,61.035,1.465,19.531,35.645,83.008
1689861620.512,54.199,5.859,17.090,43.457,28.320
1689861620.516,52.246,6.836,18.555,47.363,35.645
1689861620.520,54.199,9.277,20.508,39.551,28.809
1689861620.523,54.688,7.812,20.508,31.738,37.598
1689861620.527,51.758,10.742,21.484,30.762,29.785
1689861620.531,49.316,16.113,21.973,42.969,7.324
1689861620.535,49.316,11.719,20.996,63.477,6.348
1689861620.539,40.527,11.230,19.531,53.223,15.137
1689861620.543,40.039,9.766,20.020,36.621,-3.418
1689861620.547,40.039,6.836,13.672,24.902,-32.715
1689861620.551,42.969,12.207,10.254,6.348,-9.277
1689861620.555,49.316,17.090,14.648,2.930,21.484
1689861620.559,42.480,19.043,17.578,3.906,61.035
1689861620.562,41.504,21.484,16.113,6.836,49.805
1689861620.566,45.898,22.949,17.578,17.578,18.066
1689861620.570,47.852,22.949,20.020,18.066,1.953
1689861620.574,38.086,25.879,18.555,11.719,7.812
1689861620.578,40.039,27.344,21.973,19.043,-0.977
1689861620.582,40.039,26.855,23.926,20.508,0.488
1689861620.586,42.969,21.973,21.484,19.043,28.320
1689861620.590,45.898,19.531,23.926,28.809,44.922
1689861620.594,41.992,21.973,21.973,30.273,115.234
1689861620.598,48.340,20.996,21.484,25.391,79.590
1689861620.602,48.340,15.137,22.949,22.461,9.277
1689861620.605,49.805,14.648,18.555,26.855,6.836
1689861620.609,50.293,17.578,17.578,28.809,-7.324
1689861620.613,48.828,18.555,17.578,23.926,-32.715
1689861620.617,47.852,19.043,13.184,26.855,-3.906
1689861620.621,46.875,18.066,15.625,27.832,-2.441
1689861620.625,49.316,22.461,22.461,19.043,18.555
1689861620.629,58.594,22.461,23.926,22.461,22.949
1689861620.633,55.176,22.949,24.902,25.879,-55.664
1689861620.637,45.898,26.367,19.043,25.391,-19.531
1689861620.641,41.992,22.949,19.043,21.973,48.340
1689861620.644,41.016,21.973,28.809,21.973,33.691
1689861620.648,43.457,22.949,29.785,27.344,40.039
1689861620.652,47.363,24.414,26.855,23.926,47.852
1689861620.656,48.340,28.320,30.762,23.926,41.992
1689861620.660,42.480,22.949,26.855,17.090,6.348
1689861620.664,35.645,17.090,18.555,13.672,1.953
1689861620.668,33.203,17.578,19.043,16.602,80.078
1689861620.672,32.715,17.578,19.043,19.043,63.477
1689861620.676,32.715,19.043,22.461,20.020,53.223
1689861620.680,31.738,22.461,29.297,15.625,49.316
1689861620.684,28.320,21.484,20.996,19.531,19.531
1689861620.687,32.715,18.555,13.672,21.973,-33.691
1689861620.691,33.691,20.996,21.973,14.160,-52.734
1689861620.695,27.344,28.809,25.879,13.184,15.137
1689861620.699,29.297,27.344,23.438,18.066,14.648
1689861620.703,36.133,23.438,23.926,19.043,67.871
1689861620.707,29.785,23.926,28.320,20.508,29.785
1689861620.711,30.762,24.902,32.227,28.809,-14.648
1689861620.715,33.203,27.832,25.391,33.203,36.621
1689861620.719,26.367,28.320,12.207,26.367,59.082
1689861620.723,27.832,30.273,14.160,19.043,123.047
1689861620.726,28.809,30.762,22.949,22.461,85.938
1689861620.730,25.391,26.855,21.973,26.855,18.555
1689861620.734,24.414,23.438,22.949,17.578,27.344
1689861620.738,27.344,24.902,23.926,11.719,52.246
1689861620.742,34.668,28.809,31.250,17.578,67.383
1689861620.746,49.316,20.020,28.320,31.250,43.457
1689861620.750,52.734,18.555,21.484,41.992,71.289
1689861620.754,28.809,22.949,16.113,15.625,102.539
1689861620.758,13.672,28.320,9.277,-12.207,60.547
1689861620.762,17.578,44.434,18.555,-9.277,11.230
1689861620.765,29.297,42.969,23.926,1.465,29.785
1689861620.769,22.461,40.039,19.531,-7.812,46.875
1689861620.773,7.812,44.922,11.230,-21.973,-18.555
1689861620.777,16.113,37.598,13.672,-15.625,-16.602
1689861620.781,13.184,31.250,11.230,-21.973,-3.418
1689861620.785,9.277,31.250,9.766,-22.949,-43.457
1689861620.789,17.090,31.250,4.395,-13.672,1.465
1689861620.793,16.602,29.785,0.488,-6.348,28.320
1689861620.797,18.066,32.715,4.395,-2.441,111.816
1689861620.801,20.508,31.738,5.859,-3.418,86.914
1689861620.805,29.297,31.738,11.230,3.906,9.766
1689861620.808,35.645,35.156,19.043,16.113,55.664
1689861620.812,31.250,36.621,23.438,15.625,41.504
1689861620.816,26.855,31.250,17.090,4.883,11.719
1689861620.820,30.762,29.785,17.090,1.465,32.715
1689861620.824,32.715,31.738,21.973,9.766,-14.648
1689861620.828,32.715,25.879,19.531,11.230,-49.805
1689861620.832,33.691,26.367,17.578,10.254,37.109
1689861620.836,33.691,29.785,19.531,11.230,54.688
1689861620.840,34.668,29.785,16.113,7.812,-2.441
1689861620.844,31.250,35.156,11.719,8.789,17.090
1689861620.847,36.133,37.109,10.742,18.555,56.641
1689861620.851,35.645,28.809,19.531,21.484,51.270
1689861620.855,34.668,22.949,29.297,16.113,-36.133
1689861620.859,32.227,22.949,28.809,12.207,-47.852
1689861620.863,26.367,21.973,26.367,12.207,24.414
1689861620.867,30.273,19.043,25.879,13.184,4.883
1689861620.871,32.227,24.414,16.602,20.508,8.301
1689861620.875,39.551,34.180,11.230,31.250,59.082
1689861620.879,40.527,32.715,18.066,28.809,5.371
1689861620.883,31.250,27.344,27.344,21.973,-33.203
1689861620.887,33.691,23.926,31.250,29.785,25.391
1689861620.890,35.645,25.879,36.621,38.086,22.949
1689861620.894,31.250,27.832,32.715,27.344,8.301
1689861620.898,26.855,22.949,20.508,19.043,-13.672
1689861620.902,36.621,18.066,12.695,22.461,14.648
1689861620.906,46.387,20.020,1.465,29.785,47.363
1689861620.910,34.668,23.926,10.254,32.227,45.410
1689861620.914,21.484,20.996,29.297,27.344,33.691
1689861620.918,22.949,20.508,37.109,26.855,-9.766
1689861620.922,24.414,25.879,39.551,22.949,-17.090
1689861620.926,31.250,30.762,36.621,21.973,-17.578
1689861620.929,38.574,39.551,36.621,30.273,-0.977
1689861620.933,31.738,37.598,40.039,25.391,55.664
1689861620.937,30.762,29.297,42.480,27.344,39.551
1689861620.941,28.320,26.367,28.809,26.855,48.828
1689861620.945,23.438,18.555,16.602,16.113,20.508
1689861620.949,16.602,17.090,9.766,16.602,1.465
1689861620.953,19.043,20.508,1.953,20.996,64.941
1689861620.957,13.184,20.020,10.254,24.414,50.293
1689861620.961,3.906,22.949,24.414,24.414,49.805
1689861620.965,11.230,19.043,28.809,22.461,31.250
1689861620.969,20.020,14.160,24.414,27.832,-9.766
1689861620.972,26.855,21.484,27.344,31.250,47.852
1689861620.976,27.344,25.391,40.527,21.973,98.145
1689861620.980,29.785,26.855,42.969,14.160,61.523
1689861620.984,40.527,25.391,34.180,11.719,0.977
1689861620.988,46.875,21.973,24.902,13.184,29.785
1689861620.992,49.805,23.926,17.090,16.602,73.730
1689861620.996,48.340,25.391,16.113,9.277,97.168
1689861621.000,37.598,28.320,27.832,4.883,64.941
1689861621.004,23.926,24.414,24.902,11.719,33.691
1689861621.008,11.719,19.043,20.020,17.578,24.902
1689861621.011,6.836,18.555,35.645,28.809,20.996
1689861621.015,4.395,18.066,47.852,34.180,70.312
1689861621.019,6.348,20.020,37.598,26.855,63.965
1689861621.023,11.719,19.531,24.414,20.508,55.664
1689861621.027,15.137,13.672,17.578,20.996,90.332
1689861621.031,20.996,15.137,20.020,25.879,55.176
1689861621.035,29.297,21.973,43.457,27.344,60.059
1689861621.039,35.645,26.855,39.062,19.531,17.578
1689861621.043,33.691,19.043,28.320,14.648,-17.090
1689861621.047,31.738,12.695,36.133,22.949,56.641
1689861621.051,30.273,16.113,32.715,21.484,96.680
1689861621.054,26.367,16.602,25.879,13.672,65.430
1689861621.058,24.902,19.043,24.414,13.672,12.695
1689861621.062,33.203,19.043,22.461,17.090,31.250
1689861621.066,36.133,19.043,31.738,21.973,20.996
1689861621.070,32.715,23.926,32.715,32.715,-4.395
1689861621.074,37.109,23.926,25.879,35.645,54.688
1689861621.078,34.180,22.461,20.020,23.926,61.523
1689861621.082,41.504,22.949,24.414,13.672,-7.812
1689861621.086,41.016,23.438,37.109,19.531,21.484
1689861621.090,33.203,20.508,31.738,20.020,51.758
1689861621.093,28.809,19.531,31.738,21.484,-2.441
1689861621.097,23.438,16.602,30.762,28.320,-30.762
1689861621.101,35.645,12.695,29.297,23.926,2.930
1689861621.105,41.992,12.695,19.043,19.043,8.301
1689861621.109,39.551,17.090,19.531,23.926,-29.785
1689861621.113,37.598,20.508,37.598,27.344,33.691
1689861621.117,37.598,26.367,41.992,31.250,78.613
1689861621.121,41.992,31.738,46.387,37.109,49.316
1689861621.125,40.527,25.391,48.340,36.621,39.551
1689861621.129,33.203,16.113,32.715,33.203,69.336
1689861621.133,28.809,14.648,30.762,32.715,58.594
1689861621.136,25.391,22.461,39.062,31.738,31.738
1689861621.140,27.832,18.555,38.574,26.855,38.574
1689861621.144,33.203,16.602,36.133,23.926,36.133
1689861621.148,32.715,25.879,36.133,30.273,36.133
1689861621.152,33.203,26.855,27.344,30.762,-2.930
1689861621.156,28.320,26.855,20.508,30.273,46.387
1689861621.160,21.973,27.344,29.785,25.391,80.566
1689861621.164,27.344,26.367,34.668,20.996,17.578
1689861621.168,39.551,32.715,36.133,27.344,52.246
1689861621.172,40.039,31.738,32.227,20.996,48.828
1689861621.175,35.156,29.785,27.832,17.578,17.090
1689861621.179,36.133,28.809,28.320,21.484,16.602
1689861621.183,36.621,22.949,26.367,25.879,19.531
1689861621.187,45.898,23.926,25.879,33.203,37.598
1689861621.191,48.340,25.391,29.297,24.902,44.922
1689861621.195,44.434,30.762,40.527,29.785,47.363
1689861621.199,47.852,40.527,46.387,35.156,63.965
1689861621.203,50.781,33.691,43.457,30.762,27.832
1689861621.207,42.969,29.785,36.133,31.250,34.668
1689861621.211,37.598,26.367,20.508,24.414,23.926
1689861621.215,36.621,18.066,12.695,20.020,8.301
1689861621.218,33.203,20.996,12.207,19.531,31.738
1689861621.222,38.086,26.367,26.367,19.531,24.902
1689861621.226,42.969,28.809,31.738,22.461,63.477
1689861621.230,42.480,31.738,19.531,22.949,47.852
1689861621.234,39.062,26.855,22.461,17.578,8.789
1689861621.238,42.480,22.949,35.645,31.738,5.371
1689861621.242,45.898,31.250,26.855,33.203,-2.441
1689861621.246,42.480,35.156,13.672,26.367,-26.367
1689861621.250,39.551,39.551,18.066,27.344,6.348
1689861621.254,39.062,34.668,21.484,30.762,9.766
1689861621.257,43.457,26.855,34.180,39.062,-25.391
1689861621.261,43.457,33.203,31.738,43.457,-3.418
1689861621.265,41.992,28.809,20.020,40.527,65.430
1689861621.269,41.504,26.367,15.625,34.180,29.785
1689861621.273,40.527,26.367,13.672,36.133,11.230
1689861621.277,38.574,26.367,20.996,29.297,73.730
1689861621.281,38.086,29.297,22.949,24.902,36.133
1689861621.285,40.527,25.879,19.531,34.180,19.531
1689861621.289,39.062,27.344,24.414,34.180,31.250
1689861621.293,33.691,20.996,20.996,35.645,35.645
1689861621.297,29.297,11.230,22.461,34.180,27.344
1689861621.300,39.062,30.762,28.320,25.391,-34.668
1689861621.304,51.270,43.457,30.273,35.156,-18.555
1689861621.308,46.875,28.320,34.668,41.504,55.664
1689861621.312,46.875,21.973,22.949,41.992,20.020
1689861621.316,51.758,29.785,19.043,45.898,43.945
1689861621.320,48.340,23.438,8.301,36.133,94.727
1689861621.324,42.969,20.508,0.977,27.344,38.086
1689861621.328,42.480,29.297,24.414,39.551,59.570
1689861621.332,38.086,23.926,30.273,35.156,50.293
1689861621.336,41.016,27.832,44.434,34.180,-7.324
1689861621.339,45.898,32.227,44.434,32.715,18.555
1689861621.343,47.363,22.949,29.785,26.855,16.602
1689861621.347,59.082,31.250,37.109,30.762,31.738
1689861621.351,62.500,35.645,25.879,34.180,84.961
1689861621.355,62.012,30.762,-0.488,44.434,89.355
1689861621.359,62.012,28.320,-6.836,37.109,94.238
1689861621.363,53.223,25.391,19.043,37.598,84.961
1689861621.367,45.410,30.273,39.551,38.574,41.016
1689861621.371,37.598,33.203,43.945,35.156,68.359
1689861621.375,41.504,33.691,35.645,25.391,77.637
1689861621.379,45.898,38.574,26.367,29.297,40.039
1689861621.382,40.039,32.715,34.180,28.809,46.875
1689861621.386,32.227,24.414,38.574,20.020,58.594
1689861621.390,34.668,29.297,37.598,33.203,23.438
1689861621.394,32.715,33.691,27.832,31.738,11.719
1689861621.398,27.344,23.438,18.066,27.344,37.598
1689861621.402,34.668,14.160,18.555,36.133,20.996
1689861621.406,36.621,24.414,25.879,34.668,-1.465
1689861621.410,34.180,30.762,27.344,30.762,-5.859
1689861621.414,38.574,29.785,20.996,27.344,15.625
1689861621.418,26.367,27.832,19.043,15.625,36.133
1689861621.421,23.926,30.273,24.414,13.184,32.227
1689861621.425,31.738,25.391,32.227,18.555,22.949
1689861621.429,38.086,29.297,35.645,29.785,4.395
1689861621.433,37.109,34.180,32.227,35.156,20.020
1689861621.437,29.297,30.762,31.738,27.832,12.207
1689861621.441,29.297,32.715,30.762,29.785,46.387
1689861621.445,35.156,26.855,19.043,37.109,30.273
1689861621.449,30.762,23.926,23.438,41.504,-8.301
1689861621.453,28.809,31.738,38.086,44.922,29.297
1689861621.457,32.227,30.273,32.227,35.645,-7.324
1689861621.461,21.484,25.391,22.461,17.578,62.500
1689861621.464,19.043,29.297,25.391,14.648,65.918
1689861621.468,33.203,31.250,29.785,31.250,-31.250
1689861621.472,37.109,32.715,36.621,31.250,-6.348
1689861621.476,33.203,33.203,33.203,20.020,47.363
1689861621.480,39.551,30.273,29.785,30.762,86.426
1689861621.484,37.109,27.832,20.996,34.180,52.734
1689861621.488,42.969,34.668,30.762,36.621,7.812
1689861621.492,39.551,32.715,41.992,34.668,65.918
1689861621.496,33.203,34.668,31.250,32.227,80.566
1689861621.500,40.039,41.992,31.738,27.344,32.715
1689861621.503,38.086,34.180,33.203,23.438,31.738
1689861621.507,37.109,33.203,22.461,25.879,-4.395
1689861621.511,37.598,34.180,21.484,19.043,-26.367
1689861621.515,36.621,30.762,37.598,16.113,6.348
1689861621.519,34.180,28.809,40.039,5.371,73.242
1689861621.523,34.180,30.273,35.156,9.277,59.570
1689861621.527,26.367,36.133,34.668,20.020,14.648
1689861621.531,27.832,40.039,21.484,20.508,25.879
1689861621.535,26.855,37.109,20.508,19.531,11.719
1689861621.539,15.625,20.996,40.527,12.207,39.551
1689861621.543,12.207,12.695,41.016,5.371,99.121
1689861621.546,6.348,26.367,32.227,7.812,65.918
1689861621.550,3.906,23.926,26.367,9.277,10.742
1689861621.554,14.648,22.461,20.020,17.090,-6.348
1689861621.558,24.414,24.414,24.902,21.484,20.508
1689861621.562,27.344,27.832,26.855,19.043,91.309
1689861621.566,20.020,29.785,34.668,20.020,98.145
1689861621.570,25.391,21.484,36.621,22.461,72.754
1689861621.574,26.367,19.531,33.203,22.949,59.082
1689861621.578,16.113,23.926,46.387,15.625,77.637
1689861621.582,18.555,31.250,51.270,17.578,53.711
1689861621.585,24.414,28.320,38.086,27.344,-40.039
1689861621.589,26.367,28.320,31.250,29.297,10.742
1689861621.593,19.043,29.297,25.879,29.297,38.086
1689861621.597,24.902,27.344,15.137,25.879,-34.180
1689861621.601,34.668,28.320,25.879,19.043,-14.160
1689861621.605,32.227,28.809,37.598,17.090,-14.160
1689861621.609,30.762,22.461,32.227,22.461,-5.371
1689861621.613,30.762,20.020,35.156,14.160,6.836
1689861621.617,37.109,33.203,41.504,3.906,41.016
1689861621.621,36.621,41.016,36.133,15.137,42.969
1689861621.625,34.180,30.273,28.809,20.996,-22.949
1689861621.628,38.574,39.551,33.203,26.367,11.230
1689861621.632,37.109,38.086,27.344,24.414,-17.578
1689861621.636,32.227,20.996,22.461,18.555,-30.273
1689861621.640,33.203,27.832,28.320,19.531,17.090
1689861621.644,31.738,24.902,35.645,16.602,46.875
1689861621.648,25.879,21.973,35.645,20.020,49.316
1689861621.652,33.203,29.785,36.133,15.137,31.250
1689861621.656,34.180,34.180,28.320,13.184,75.195
1689861621.660,28.320,37.109,28.320,20.020,29.297
1689861621.664,33.691,39.062,42.969,19.531,-8.789
1689861621.667,24.902,32.715,41.016,16.113,26.367
1689861621.671,16.113,27.344,28.320,10.254,23.926
1689861621.675,25.879,27.344,26.855,15.137,-7.324
1689861621.679,16.602,16.602,20.996,5.371,28.320
1689861621.683,17.578,22.461,26.855,-1.953,32.227
1689861621.687,21.484,30.762,38.574,0.977,65.918
1689861621.691,15.137,28.320,37.109,2.441,71.777
1689861621.695,15.625,34.668,42.969,4.883,39.062
1689861621.699,13.184,29.785,32.227,-1.953,26.367
1689861621.703,18.066,17.090,20.996,1.953,-36.133
1689861621.707,24.414,19.043,29.785,16.113,-8.789
1689861621.710,25.879,28.320,28.320,18.066,18.066
1689861621.714,24.414,26.855,13.184,13.184,-0.488
1689861621.718,22.461,19.043,15.625,11.230,-1.953
1689861621.722,22.949,20.508,28.320,10.742,-1.953
1689861621.726,33.203,27.832,39.551,18.066,76.660
1689861621.730,34.180,28.320,42.480,14.160,142.578
1689861621.734,29.785,27.344,33.691,3.418,74.219
1689861621.738,40.039,30.762,30.762,0.000,41.504
1689861621.742,51.270,30.762,29.297,5.371,5.859
1689861621.746,61.035,29.785,30.762,16.602,-16.602
1689861621.749,74.219,27.832,27.832,19.531,59.570
1689861621.753,75.195,39.062,39.551,20.508,58.105
1689861621.757,54.688,42.969,46.387,15.137,7.324
1689861621.761,35.645,27.344,34.668,9.277,41.992
1689861621.765,24.902,23.438,29.785,30.762,20.996
1689861621.769,19.531,25.879,32.227,49.805,-20.020
1689861621.773,14.160,24.414,29.297,48.828,16.113
1689861621.777,10.742,21.973,23.438,45.898,32.227
1689861621.781,15.625,23.438,25.391,46.875,20.508
1689861621.785,26.367,30.762,29.297,49.805,42.480
1689861621.789,36.621,35.156,37.598,50.781,71.289
1689861621.792,32.227,33.203,53.711,43.945,27.344
1689861621.796,23.926,24.414,39.551,31.250,37.598
1689861621.800,25.391,26.367,25.879,28.320,13.184
1689861621.804,32.227,27.344,41.504,32.715,2.441
1689861621.808,35.645,24.902,41.016,37.598,21.484
1689861621.812,29.297,27.832,38.574,42.480,33.691
1689861621.816,24.414,27.344,46.875,42.969,2.441
1689861621.820,21.973,31.250,37.109,31.250,-10.254
1689861621.824,18.555,21.484,19.043,21.973,40.039
1689861621.828,18.066,14.648,9.766,25.391,40.039
1689861621.831,28.809,22.949,13.184,37.109,41.504
1689861621.835,30.762,21.973,21.484,41.992,10.254
1689861621.839,15.137,21.973,25.391,23.438,22.949
1689861621.843,11.230,30.762,35.156,16.113,13.184
1689861621.847,18.066,28.809,41.016,18.555,-3.906
1689861621.851,8.301,27.832,37.109,5.859,60.547
1689861621.855,6.348,33.691,29.785,8.301,36.621
1689861621.859,12.207,34.668,38.086,14.648,83.984
1689861621.863,8.301,22.949,34.180,5.371,91.797
1689861621.867,16.602,18.555,12.695,17.578,44.434
1689861621.871,20.996,23.926,19.531,29.297,63.965
1689861621.874,14.160,27.832,23.438,17.090,-3.906
1689861621.878,13.184,26.855,20.996,10.254,-31.738
1689861621.882,16.113,22.949,29.297,10.254,0.000
1689861621.886,14.648,24.414,18.066,22.949,45.898
1689861621.890,25.879,27.344,18.555,34.180,69.824
1689861621.894,38.086,30.762,22.949,28.320,59.570
1689861621.898,36.621,31.250,33.691,25.391,33.203
1689861621.902,31.250,26.855,31.738,28.320,-25.879
1689861621.906,34.668,27.344,28.320,37.598,5.371
1689861621.910,30.762,24.414,28.809,33.691,59.570
1689861621.913,28.809,23.438,21.973,29.297,53.711
1689861621.917,33.691,32.227,18.066,32.715,16.113
1689861621.921,30.762,32.715,27.344,33.203,34.668
1689861621.925,38.086,32.715,42.969,41.016,50.293
1689861621.929,38.086,31.738,35.156,39.062,68.848
1689861621.933,20.020,18.555,24.414,23.926,120.605
1689861621.937,24.414,15.625,22.461,16.602,82.031
1689861621.941,34.668,24.414,21.973,27.344,42.969
1689861621.945,32.715,32.227,24.414,31.250,37.598
1689861621.949,38.574,36.133,25.879,30.273,21.484
1689861621.952,46.875,35.645,33.203,38.086,35.645
1689861621.956,43.457,36.621,29.297,38.574,7.812
1689861621.960,39.551,32.227,20.508,26.855,-29.297
1689861621.964,39.062,24.902,34.668,21.484,-7.324
1689861621.968,34.668,23.438,29.297,25.879,68.848
1689861621.972,31.738,28.809,16.113,15.137,47.363
1689861621.976,35.645,35.645,25.391,10.254,-27.344
1689861621.980,35.156,27.344,32.227,14.160,18.066
1689861621.984,40.039,21.973,39.551,18.555,48.340
1689861621.988,52.734,30.273,45.410,39.551,14.160
1689861621.992,44.434,35.645,30.762,42.969,-2.930
1689861621.995,31.250,25.879,7.324,32.715,6.836
1689861621.999,32.715,17.090,11.719,29.297,3.906
1689861622.003,39.062,29.785,34.668,35.156,-55.176
1689861622.007,40.039,29.297,37.598,41.992,-46.875
1689861622.011,35.645,28.320,34.180,37.109,22.949
1689861622.015,36.621,40.527,45.898,35.645,96.191
1689861622.019,35.645,33.691,31.738,33.691,106.934
1689861622.023,39.062,26.855,13.672,40.039,31.738
1689861622.027,38.086,28.320,27.832,44.922,11.719
1689861622.031,38.574,30.762,35.645,50.781,7.324
1689861622.034,36.621,27.832,37.598,43.457,42.969
1689861622.038,28.320,23.926,42.969,30.762,39.062
1689861622.042,27.832,29.297,41.016,32.227,55.176
1689861622.046,29.785,33.203,41.992,38.086,88.379
1689861622.050,27.344,35.156,49.805,36.621,26.855
1689861622.054,23.438,23.438,29.297,22.949,-17.578
1689861622.058,24.414,23.926,20.508,27.832,-26.855
1689861622.062,28.809,29.785,27.832,32.715,37.598
1689861622.066,29.785,25.391,20.508,29.785,74.219
1689861622.070,30.762,23.926,22.461,23.926,32.227
1689861622.074,27.344,25.879,22.461,14.648,32.715
1689861622.077,19.043,26.367,24.902,16.113,36.133
1689861622.081,24.902,26.855,34.668,20.508,21.484
1689861622.085,29.785,27.832,32.715,28.809,21.973
1689861622.089,25.391,20.996,34.180,28.809,59.082
1689861622.093,23.438,21.973,40.039,20.508,15.625
1689861622.097,21.484,26.855,33.691,16.113,-8.789
1689861622.101,26.367,29.785,38.574,20.020,49.805
1689861622.105,33.203,28.320,39.062,26.855,44.434
1689861622.109,24.414,26.367,32.715,28.809,90.820
1689861622.113,24.902,24.414,34.668,29.785,93.262
1689861622.116,20.508,24.902,24.414,19.043,-12.695
1689861622.120,18.555,31.250,23.438,14.160,-40.527
1689861622.124,28.809,34.668,36.133,31.738,23.438
1689861622.128,20.020,26.367,41.016,36.621,78.613
1689861622.132,17.578,26.855,36.133,21.484,69.336
1689861622.136,22.949,34.180,41.016,15.625,31.738
1689861622.140,21.484,30.273,47.363,11.719,6.348
1689861622.144,19.043,29.297,32.715,18.555,88.379
1689861622.148,22.461,30.762,22.461,29.785,39.062
1689861622.152,21.973,24.902,26.367,30.273,-26.367
1689861622.156,20.508,23.926,27.832,33.203,41.992
1689861622.159,20.996,29.785,33.691,29.785,7.812
1689861622.163,20.996,33.691,36.621,27.344,27.832
1689861622.167,27.344,39.062,37.109,32.715,28.809
1689861622.171,28.809,37.598,32.715,27.344,-34.180
1689861622.175,27.832,31.738,31.250,24.414,16.113
1689861622.179,29.297,38.574,31.738,17.578,14.160
1689861622.183,32.715,31.738,34.668,17.578,32.227
1689861622.187,42.969,33.203,37.109,37.109,30.762
1689861622.191,51.270,46.387,27.344,44.922,0.488
1689861622.195,38.086,35.645,27.832,26.855,10.742
1689861622.198,26.367,27.344,42.480,22.949,31.738
1689861622.202,30.762,23.926,41.504,31.738,50.293
1689861622.206,29.785,28.320,35.645,31.738,5.371
1689861622.210,33.691,35.645,28.809,37.598,9.766
1689861622.214,40.039,38.086,18.555,45.898,14.648
1689861622.218,35.645,34.668,31.250,34.668,-41.504
1689861622.222,30.762,30.762,39.551,23.438,12.207
1689861622.226,34.180,28.320,34.668,28.809,24.902
1689861622.230,33.691,22.949,35.645,38.574,-5.371
1689861622.234,35.156,23.926,33.203,33.203,22.461
1689861622.238,43.457,29.297,35.156,27.832,-33.203
1689861622.241,46.387,33.691,39.551,35.645,-33.203
1689861622.245,41.016,29.785,35.156,30.273,7.812
1689861622.249,34.180,25.391,33.203,30.762,41.504
1689861622.253,32.227,28.320,32.227,32.227,96.680
1689861622.257,36.621,34.668,37.109,29.785,42.969
1689861622.261,42.969,33.691,42.969,34.180,23.438
1689861622.265,43.945,27.344,30.762,32.227,42.480
1689861622.269,41.504,23.438,15.625,26.855,55.664
1689861622.273,35.156,19.043,14.648,34.668,73.730
1689861622.277,31.250,19.043,27.832,36.133,51.270
1689861622.280,34.180,22.461,47.363,29.785,24.902
1689861622.284,40.527,25.391,42.480,39.062,62.988
1689861622.288,36.621,26.367,33.691,35.645,86.426
1689861622.292,28.809,25.879,34.668,31.738,44.922
1689861622.296,34.668,32.715,41.504,42.480,42.480
1689861622.300,41.992,36.133,46.875,38.574,98.633
1689861622.304,35.645,26.855,33.691,24.414,57.129
1689861622.308,34.180,26.855,32.715,34.668,35.156
1689861622.312,35.156,31.738,24.902,34.180,52.734
1689861622.316,33.691,30.273,20.996,26.367,18.555
1689861622.320,37.109,30.273,31.738,27.344,-44.922
1689861622.323,36.133,27.832,25.391,22.949,43.945
1689861622.327,35.156,24.902,26.855,25.879,97.168
1689861622.331,46.875,28.809,39.551,35.156,20.996
1689861622.335,43.457,31.250,26.855,26.367,21.484
1689861622.339,40.527,37.109,32.715,24.902,19.043
1689861622.343,48.828,42.480,49.805,30.273,5.859
1689861622.347,47.852,31.250,38.574,33.203,73.730
1689861622.351,46.387,25.391,34.180,39.062,78.613
1689861622.355,42.969,29.785,29.297,25.879,8.301
1689861622.359,38.086,27.344,16.113,19.531,20.020
1689861622.362,41.992,25.391,24.902,27.344,54.199
1689861622.366,48.340,31.738,35.156,39.551,28.320
1689861622.370,47.852,33.203,43.457,43.457,1.953
1689861622.374,41.016,25.391,49.316,36.133,48.340
1689861622.378,36.133,24.902,33.203,28.320,56.152
1689861622.382,37.598,27.344,34.180,31.250,3.906
1689861622.386,36.133,23.438,35.156,32.227,-33.691
1689861622.390,34.668,20.508,22.949,15.137,18.066
1689861622.394,34.668,22.461,25.879,18.066,51.270
1689861622.398,39.551,32.715,37.598,23.438,13.672
1689861622.402,42.480,40.039,41.504,25.391,5.371
1689861622.405,39.551,33.691,32.227,34.668,9.766
1689861622.409,42.480,29.785,23.438,41.992,20.508
1689861622.413,44.922,28.320,32.227,47.363,16.113
1689861622.417,40.527,26.367,45.410,41.992,29.785
1689861622.421,39.062,32.227,42.480,38.086,33.203
1689861622.425,49.316,29.785,33.691,49.805,5.371
1689861622.429,47.363,27.344,36.133,46.875,5.371
1689861622.433,33.203,38.574,41.504,37.598,4.883
1689861622.437,31.738,32.715,36.621,40.039,6.348
1689861622.441,31.250,19.531,32.715,32.715,97.656
1689861622.444,28.320,28.320,38.086,23.926,77.637
1689861622.448,30.762,35.645,34.180,33.691,15.137
1689861622.452,23.438,30.762,35.645,34.668,61.523
1689861622.456,25.879,24.902,44.922,31.738,50.293
1689861622.460,35.156,34.180,33.203,29.785,90.332
1689861622.464,32.715,36.133,27.832,23.438,44.434
1689861622.468,28.320,27.832,40.039,29.297,-41.992
1689861622.472,30.273,22.949,40.039,32.227,-20.020
1689861622.476,32.227,18.555,36.133,29.785,4.395
1689861622.480,32.715,24.902,27.832,24.902,11.230
1689861622.484,47.363,34.668,20.996,23.926,6.836
1689861622.487,56.641,36.133,29.297,26.855,7.324
1689861622.491,57.129,37.598,28.320,17.090,26.855
1689861622.495,62.988,35.156,29.297,11.719,41.504
1689861622.499,63.477,28.320,31.250,20.508,-13.672
1689861622.503,62.988,32.227,17.578,19.531,-34.668
1689861622.507,67.871,39.062,27.344,10.254,-26.367
1689861622.511,63.965,35.156,44.434,24.414,-15.137
1689861622.515,34.180,21.973,33.203,34.668,37.109
1689861622.519,18.066,18.066,20.508,37.109,7.324
1689861622.523,15.137,20.508,30.273,42.969,0.977
1689861622.526,7.324,20.996,40.527,45.898,16.113
1689861622.530,11.719,17.578,38.086,41.016,2.441
1689861622.534,20.996,22.461,35.645,39.062,44.922
1689861622.538,26.855,30.762,40.039,38.086,69.824
1689861622.542,28.320,30.762,38.574,32.715,37.598
1689861622.546,28.809,29.297,23.926,35.645,30.273
1689861622.550,31.250,22.949,28.809,36.133,37.109
1689861622.554,35.645,19.531,38.574,23.438,-15.625
1689861622.558,31.250,27.344,34.180,27.832,-23.926
1689861622.562,27.832,30.273,26.855,37.598,-16.602
1689861622.566,38.086,30.273,28.809,30.762,35.645
1689861622.569,39.062,31.250,40.039,27.832,41.504
1689861622.573,24.902,35.156,47.852,34.180,-2.441
1689861622.577,16.113,26.367,42.480,23.926,17.578
1689861622.581,21.484,21.973,28.809,21.973,19.043
1689861622.585,24.902,25.879,23.438,26.855,-2.930
1689861622.589,33.691,27.832,39.551,26.855,59.570
1689861622.593,33.691,33.203,33.691,28.809,90.332
1689861622.597,27.832,33.691,15.137,21.484,50.781
1689861622.601,28.320,27.832,9.277,11.230,85.938
1689861622.605,33.691,25.391,20.996,14.648,97.168
1689861622.608,43.457,28.809,43.457,31.738,29.785
1689861622.612,32.715,24.414,41.504,35.645,50.293
1689861622.616,31.738,19.043,35.156,37.598,76.660
1689861622.620,41.992,22.461,35.645,41.016,25.391
1689861622.624,41.016,22.461,32.227,42.480,35.156
1689861622.628,42.969,26.367,37.598,48.340,62.012
1689861622.632,49.805,32.227,43.457,52.246,60.547
1689861622.636,35.156,32.227,41.504,29.785,24.902
1689861622.640,31.738,31.250,35.156,18.066,-21.973
1689861622.644,36.621,29.297,36.133,31.250,-19.043
1689861622.648,26.855,26.855,42.969,30.762,26.367
1689861622.651,27.832,27.344,32.715,28.809,4.883
1689861622.655,27.832,20.020,20.996,20.508,16.602
1689861622.659,31.250,19.043,18.555,25.879,41.016
1689861622.663,45.410,28.320,16.602,32.715,37.598
1689861622.667,41.504,28.320,35.156,27.832,57.129
1689861622.671,34.668,24.902,41.992,33.203,-3.418
1689861622.675,39.062,31.738,39.062,32.227,-26.855
1689861622.679,38.574,41.992,44.434,26.855,37.598
1689861622.683,42.480,34.668,30.273,27.344,24.902
1689861622.687,41.992,27.344,23.926,23.926,-0.977
1689861622.690,37.109,28.809,36.621,18.555,16.602
1689861622.694,38.574,28.809,34.668,20.020,18.555
1689861622.698,39.062,29.297,31.250,23.438,52.734
1689861622.702,50.293,28.809,31.250,34.668,39.062
1689861622.706,55.176,33.203,28.809,36.621,34.668
1689861622.710,52.734,30.762,25.391,41.504,65.918
1689861622.714,62.988,32.227,25.879,46.875,-6.836
1689861622.718,63.965,33.691,32.227,40.527,-52.246
1689861622.722,63.477,34.668,33.691,38.086,-26.367
1689861622.726,59.082,35.645,23.438,42.969,-7.324
1689861622.730,56.641,33.203,28.320,42.480,26.367
1689861622.733,51.758,32.715,36.621,32.715,71.289
1689861622.737,45.898,30.762,31.738,31.738,57.617
1689861622.741,49.805,24.902,25.391,34.668,31.250
1689861622.745,50.293,29.297,20.508,46.387,-14.648
1689861622.749,47.852,38.574,22.461,50.781,9.766
1689861622.753,45.898,33.203,23.926,42.969,5.371
1689861622.757,45.410,27.832,34.180,41.016,-40.527
1689861622.761,45.410,31.738,37.598,41.992,16.113
1689861622.765,42.969,30.273,27.344,34.180,4.395
1689861622.769,33.691,28.809,41.504,26.855,-6.836
1689861622.772,28.320,30.762,41.992,27.344,37.598
1689861622.776,29.297,28.320,26.367,26.367,7.812
1689861622.780,29.297,24.414,33.691,27.832,0.977
1689861622.784,36.133,33.203,44.434,36.621,8.789
1689861622.788,36.621,34.180,38.086,44.434,-8.301
1689861622.792,27.344,20.020,27.344,33.691,10.254
1689861622.796,31.250,22.461,27.344,29.785,54.688
1689861622.800,33.691,28.320,31.738,33.691,70.801
1689861622.804,25.391,29.297,25.879,28.320,45.410
1689861622.808,26.367,22.461,23.926,22.461,58.105
1689861622.812,27.344,20.508,39.551,26.855,2.441
1689861622.815,22.461,34.180,41.016,34.180,6.348
1689861622.819,27.344,32.227,39.551,26.367,28.320
1689861622.823,30.762,24.902,34.668,22.949,1.465
1689861622.827,30.273,28.809,30.273,30.273,-4.883
1689861622.831,36.621,39.062,36.621,44.434,27.832
1689861622.835,40.039,42.969,39.551,41.016,79.590
1689861622.839,34.180,39.062,36.133,35.645,65.430
1689861622.843,32.227,33.203,36.621,42.969,8.789
1689861622.847,32.227,22.949,29.785,36.133,36.621
1689861622.851,31.250,25.391,30.762,36.133,20.020
1689861622.854,27.832,37.598,36.621,29.785,9.766
1689861622.858,27.832,29.785,38.086,22.949,-8.789
1689861622.862,27.344,27.344,35.156,24.414,9.277
1689861622.866,24.902,31.738,37.109,32.227,6.348
1689861622.870,27.344,28.320,43.945,39.551,84.961
1689861622.874,28.809,25.391,34.180,32.227,99.609
1689861622.878,33.691,34.668,31.250,28.320,40.039
1689861622.882,30.762,37.109,32.227,20.508,45.410
1689861622.886,26.855,29.785,35.156,19.043,24.902
1689861622.890,31.738,28.320,41.504,25.391,112.793
1689861622.894,30.273,29.297,31.738,23.438,74.707
1689861622.897,27.344,25.391,24.902,22.461,23.438
1689861622.901,30.273,24.902,24.902,25.391,62.500
1689861622.905,24.414,20.996,22.949,25.879,69.824
1689861622.909,20.996,15.625,31.250,27.344,54.688
1689861622.913,29.785,25.879,41.992,28.320,54.688
1689861622.917,34.668,27.344,41.992,26.855,16.602
1689861622.921,34.180,28.809,36.621,38.574,-20.996
1689861622.925,28.320,28.320,30.273,36.621,-8.301
1689861622.929,26.855,23.438,32.715,25.879,5.371
1689861622.933,26.855,29.297,38.574,28.809,52.246
1689861622.936,28.320,37.598,41.504,32.227,35.645
1689861622.940,34.180,28.320,39.062,33.691,-11.230
1689861622.944,33.691,27.832,31.250,31.738,47.852
1689861622.948,26.367,30.273,26.367,30.762,38.574
1689861622.952,28.320,23.438,20.020,30.273,1.953
1689861622.956,39.062,22.949,28.809,35.156,62.988
1689861622.960,37.598,28.809,37.109,34.668,58.594
1689861622.964,37.109,34.668,37.598,27.832,6.836
1689861622.968,36.133,28.809,37.598,31.738,-25.879
1689861622.972,37.109,31.250,42.480,34.180,2.930
1689861622.976,35.156,38.086,37.598,32.715,53.223
1689861622.979,32.715,32.227,31.250,34.668,28.809
1689861622.983,38.574,32.715,41.016,40.039,-1.953
1689861622.987,35.645,23.926,32.715,38.574,43.945
1689861622.991,31.738,22.949,27.344,32.227,112.793
1689861622.995,33.691,24.414,26.855,36.621,79.102
1689861622.999,33.691,20.020,23.926,36.133,-6.836
1689861623.003,33.691,21.973,31.738,34.180,29.785
1689861623.007,41.992,24.414,35.645,37.109,90.820
1689861623.011,46.875,30.273,33.691,40.527,75.195
1689861623.015,41.992,21.484,41.016,34.180,69.824
1689861623.018,37.598,23.438,40.039,31.250,65.918
1689861623.022,41.992,28.320,23.926,31.250,54.688
1689861623.026,41.016,18.555,29.297,33.691,71.289
1689861623.030,44.434,23.926,37.109,38.574,50.781
1689861623.034,47.852,28.320,32.227,36.133,37.109
1689861623.038,45.898,29.785,33.691,42.480,12.695
1689861623.042,49.316,41.504,38.086,52.246,5.859
1689861623.046,37.598,38.574,39.551,41.504,-2.930
1689861623.050,30.762,29.297,42.969,38.086,16.113
1689861623.054,34.180,26.367,39.062,38.086,45.898
1689861623.058,28.809,27.832,32.227,27.832,42.969
1689861623.061,29.297,26.855,25.879,25.879,62.500
1689861623.065,31.738,23.438,19.043,24.902,51.270
1689861623.069,28.809,23.438,33.691,34.668,3.906
1689861623.073,36.133,32.227,42.480,33.691,25.879
1689861623.077,42.969,40.039,38.574,24.414,24.414
1689861623.081,37.109,22.949,31.738,22.461,-6.348
1689861623.085,32.227,18.066,29.297,27.832,30.273
1689861623.089,30.762,29.297,41.016,37.109,20.996
1689861623.093,30.273,32.715,41.504,36.133,61.523
1689861623.097,27.344,32.227,30.762,25.879,79.102
1689861623.100,31.250,32.227,37.598,29.785,38.086
1689861623.104,42.480,43.945,40.039,35.645,51.758
1689861623.108,39.062,43.945,39.551,25.879,47.363
1689861623.112,27.344,31.738,38.574,22.949,-5.371
1689861623.116,26.855,27.344,32.715,32.227,23.926
1689861623.120,26.855,21.484,27.832,30.762,13.184
1689861623.124,35.645,21.973,34.668,35.156,-35.156
1689861623.128,38.086,24.414,48.340,43.457,6.836
1689861623.132,28.809,27.344,41.504,40.039,43.457
1689861623.136,25.879,28.809,29.785,37.598,30.762
1689861623.139,32.715,35.645,35.156,41.016,45.410
1689861623.143,33.691,34.180,32.715,42.480,7.812
1689861623.147,27.832,27.832,31.250,34.668,8.301
1689861623.151,25.879,36.133,37.598,33.203,20.020
1689861623.155,24.414,28.809,35.645,25.391,9.766
1689861623.159,25.879,26.855,41.016,23.438,9.766
1689861623.163,36.133,35.645,51.758,36.133,41.992
1689861623.167,35.156,32.227,41.016,37.109,45.410
1689861623.171,26.855,22.461,25.391,35.156,-6.348
1689861623.175,27.344,23.438,31.250,30.273,32.227
1689861623.179,31.738,34.668,41.504,26.367,6.348
1689861623.182,36.133,30.762,41.992,33.203,-17.578
1689861623.186,30.762,24.902,32.227,36.621,55.176
1689861623.190,22.461,25.391,25.879,31.738,101.562
1689861623.194,21.484,24.902,29.785,32.715,97.656
1689861623.198,24.414,21.973,31.738,33.203,34.180
1689861623.202,19.043,17.090,31.738,30.762,19.043
1689861623.206,21.484,26.367,23.926,28.809,50.293
1689861623.210,28.320,28.809,30.762,24.414,34.668
1689861623.214,30.762,23.438,46.875,20.996,41.992
1689861623.218,38.574,29.785,50.293,13.672,36.621
1689861623.221,41.016,27.832,42.969,7.324,38.086
1689861623.225,57.617,25.391,36.133,20.020,2.441
1689861623.229,73.242,29.297,39.062,21.973,4.395
1689861623.233,62.988,27.344,38.574,18.555,20.508
1689861623.237,56.641,27.344,31.738,27.344,35.645
1689861623.241,52.734,28.809,34.668,34.668,39.062
1689861623.245,40.039,32.715,39.551,45.410,-15.625
1689861623.249,31.738,37.598,48.828,47.852,11.719
1689861623.253,20.508,33.691,51.758,44.434,66.406
1689861623.257,13.184,30.762,37.598,38.086,47.363
1689861623.261,17.090,26.367,33.691,30.273,46.387
1689861623.264,25.391,31.250,32.715,33.691,21.484
1689861623.268,32.715,41.992,26.367,36.133,19.531
1689861623.272,31.738,38.574,38.086,31.738,22.949
1689861623.276,34.180,35.645,37.109,25.391,43.457
1689861623.280,38.574,36.133,29.297,25.391,41.016
1689861623.284,37.109,31.250,27.344,35.156,-20.020
1689861623.288,44.434,38.086,27.344,46.875,-14.160
1689861623.292,44.922,42.480,36.621,47.363,-42.480
1689861623.296,32.227,36.621,31.738,28.809,-8.301
1689861623.300,38.574,39.551,28.809,23.926,50.781
1689861623.303,41.992,40.527,36.133,29.297,74.219
1689861623.307,38.086,29.785,38.574,36.133,52.246
1689861623.311,33.691,27.344,29.785,38.086,18.066
1689861623.315,36.621,29.785,20.020,31.738,37.598
1689861623.319,41.504,30.273,26.367,27.832,-27.832
1689861623.323,37.109,34.180,27.832,31.738,-41.016
1689861623.327,42.969,37.109,29.785,33.691,39.062
1689861623.331,42.480,32.715,34.180,35.645,43.457
1689861623.335,41.504,30.762,34.668,37.598,33.203
1689861623.339,44.922,30.762,31.250,25.391,34.180
1689861623.343,47.852,37.109,37.598,34.668,39.551
1689861623.346,35.156,34.180,33.691,31.250,27.832
1689861623.350,27.832,25.879,18.555,24.414,16.113
1689861623.354,37.109,35.156,29.297,33.203,49.316
1689861623.358,39.062,34.668,36.133,38.086,13.184
1689861623.362,44.434,27.344,29.785,45.898,7.324
1689861623.366,42.480,29.785,27.832,40.527,9.766
1689861623.370,40.039,31.738,34.180,39.551,2.930
1689861623.374,45.898,33.203,51.270,47.852,11.719
1689861623.378,48.828,36.133,51.270,43.457,80.078
1689861623.382,41.992,36.133,31.738,30.762,77.637
1689861623.385,39.062,44.922,26.855,24.902,46.875
1689861623.389,36.133,47.363,21.484,34.668,55.176
1689861623.393,30.273,36.621,32.715,32.227,27.832
1689861623.397,25.879,36.621,33.691,10.254,91.797
1689861623.401,23.926,32.715,17.578,12.207,147.949
1689861623.405,32.715,31.738,20.508,26.855,74.707
1689861623.409,36.133,39.062,20.020,21.484,8.301
1689861623.413,35.156,33.203,18.555,20.020,107.910
1689861623.417,47.852,38.086,35.156,26.855,104.980
1689861623.421,53.223,39.551,41.992,31.250,28.320
1689861623.425,46.387,28.809,24.902,29.785,78.125
1689861623.428,48.340,30.273,23.926,31.250,109.375
1689861623.432,38.574,34.668,27.344,34.180,39.551
1689861623.436,33.203,34.668,22.461,20.996,15.137
1689861623.440,41.504,39.062,35.156,17.578,59.570
1689861623.444,45.410,50.781,43.457,37.598,41.504
1689861623.448,43.457,44.922,27.344,50.293,-16.113
1689861623.452,41.992,30.273,26.855,39.551,43.945
1689861623.456,40.039,36.621,36.621,30.273,48.340
1689861623.460,47.363,39.551,32.715,34.668,-20.020
1689861623.464,49.805,34.180,25.391,36.133,-12.207
1689861623.467,41.016,35.645,27.832,25.879,43.457
1689861623.471,40.039,34.668,29.785,25.879,31.250
1689861623.475,41.992,32.715,33.691,32.227,7.324
1689861623.479,41.016,30.762,29.297,30.762,45.410
1689861623.483,44.434,38.574,29.297,32.227,52.734
1689861623.487,46.387,44.434,33.691,38.574,35.645
1689861623.491,39.062,40.039,28.809,43.945,37.598
1689861623.495,31.250,43.457,30.273,40.039,0.000
1689861623.499,22.461,33.203,29.785,29.297,-25.391
1689861623.503,32.227,26.855,25.879,37.109,29.785
1689861623.507,33.691,32.715,28.809,42.969,134.277
1689861623.510,33.691,26.367,25.879,37.598,72.754
1689861623.514,36.621,26.367,24.414,38.574,50.293
1689861623.518,30.273,30.273,34.668,44.922,53.223
1689861623.522,35.156,31.738,39.062,51.758,-25.391
1689861623.526,38.086,34.180,41.016,48.340,-6.348
1689861623.530,36.133,28.809,35.645,40.527,43.457
1689861623.534,47.852,36.133,44.922,48.828,90.332
1689861623.538,46.387,41.504,47.852,56.152,72.266
1689861623.542,34.668,28.320,36.133,47.363,35.156
1689861623.546,39.551,29.297,35.645,37.109,81.543
1689861623.549,40.527,34.180,38.086,37.109,76.660
1689861623.553,40.527,31.250,41.992,40.039,1.465
1689861623.557,48.828,31.738,36.621,41.504,-1.465
1689861623.561,49.316,41.992,34.180,40.527,-0.488
1689861623.565,37.109,49.316,37.598,46.387,-16.113
1689861623.569,40.527,39.551,40.527,44.434,43.457
1689861623.573,42.480,30.762,50.781,26.855,68.359
1689861623.577,40.039,36.621,46.875,34.180,27.344
1689861623.581,47.852,39.551,33.691,41.504,-6.836
1689861623.585,44.922,34.668,38.086,36.621,20.996
1689861623.589,39.551,37.598,35.645,49.316,29.785
1689861623.592,40.039,39.062,27.344,51.758,-33.691
1689861623.596,40.527,39.551,22.461,30.273,-29.297
1689861623.600,48.828,41.504,32.227,34.668,-47.852
1689861623.604,48.340,37.598,34.668,44.434,-20.996
1689861623.608,32.227,35.645,18.555,41.504,4.395
1689861623.612,42.480,36.621,29.297,46.875,17.090
1689861623.616,46.875,38.574,45.898,50.293,20.508
1689861623.620,36.133,39.062,40.527,38.086,18.555
1689861623.624,37.109,34.668,31.250,33.691,27.832
1689861623.628,35.645,34.180,38.086,39.551,4.395
1689861623.631,42.480,34.668,42.480,37.109,-69.824
1689861623.635,43.457,24.414,43.457,33.691,12.695
1689861623.639,40.039,34.668,33.203,40.527,87.402
1689861623.643,46.875,45.898,25.391,45.898,43.945
1689861623.647,41.992,38.086,26.367,39.551,74.219
1689861623.651,38.574,33.203,19.531,44.922,83.496
1689861623.655,45.410,30.273,21.973,46.387,10.742
1689861623.659,47.852,32.227,28.809,38.574,-42.480
1689861623.663,56.152,42.480,35.645,49.805,28.320
1689861623.667,55.176,34.180,32.715,41.992,3.906
1689861623.671,47.852,29.297,33.203,38.574,-13.184
1689861623.674,52.246,41.016,49.805,41.016,71.777
1689861623.678,51.758,36.133,38.086,29.297,46.387
1689861623.682,44.434,35.156,25.391,36.621,64.453
1689861623.686,40.039,34.668,34.180,34.180,60.059
1689861623.690,41.016,36.621,39.062,37.598,54.199
1689861623.694,47.363,41.016,41.992,49.316,56.152
1689861623.698,50.293,33.691,44.434,40.039,-12.695
1689861623.702,45.898,33.203,39.062,33.691,24.414
1689861623.706,44.922,35.156,32.227,39.551,21.973
1689861623.710,48.828,35.645,39.062,37.109,-25.879
1689861623.713,45.410,38.086,33.691,34.668,17.090
1689861623.717,42.480,37.598,30.762,35.156,30.273
1689861623.721,50.293,39.551,41.992,35.645,7.324
1689861623.725,50.781,41.016,39.062,38.086,39.062
1689861623.729,34.180,31.738,28.320,33.203,29.785
1689861623.733,31.738,32.715,33.691,23.926,21.973
1689861623.737,33.691,35.156,42.969,27.344,26.367
1689861623.741,27.344,27.832,38.086,33.691,22.461
1689861623.745,29.785,28.809,27.344,31.738,14.160
1689861623.749,30.273,32.227,30.273,30.273,59.082
1689861623.753,23.438,30.273,35.156,27.344,93.262
1689861623.756,26.855,35.645,33.691,22.461,70.801
1689861623.760,30.762,37.109,22.949,15.625,64.453
1689861623.764,32.715,31.738,23.926,27.832,68.359
1689861623.768,32.715,29.297,35.156,36.621,-5.859
1689861623.772,31.250,33.203,31.738,31.738,-13.672
1689861623.776,33.203,41.992,43.945,34.668,41.504
1689861623.780,22.461,28.320,38.086,19.531,38.086
1689861623.784,14.648,24.414,23.926,15.137,68.359
1689861623.788,22.949,30.762,27.344,22.949,60.547
1689861623.792,27.344,30.762,36.621,18.066,49.316
1689861623.795,29.785,34.180,40.039,15.137,26.855
1689861623.799,35.156,32.227,36.133,17.578,38.574
1689861623.803,33.203,36.133,31.738,28.320,38.574
1689861623.807,35.156,41.016,41.992,44.434,37.598
1689861623.811,33.691,35.645,42.969,38.574,26.855
1689861623.815,33.691,31.250,29.785,20.508,36.133
1689861623.819,49.316,38.086,46.387,26.855,8.789
1689861623.823,41.504,33.691,44.922,29.785,3.418
1689861623.827,27.344,21.973,16.602,27.344,6.348
1689861623.831,33.691,26.855,21.973,27.832,0.488
1689861623.835,34.668,28.320,38.574,28.320,80.078
1689861623.838,35.645,27.344,27.832,31.250,35.156
1689861623.842,39.551,30.273,23.438,40.527,-4.883
1689861623.846,30.762,30.762,42.480,38.574,-2.930
1689861623.850,34.180,32.715,40.527,31.738,-40.039
1689861623.854,42.969,34.180,45.898,37.109,-4.883
1689861623.858,37.598,33.691,49.316,28.809,23.926
1689861623.862,39.062,37.109,35.156,30.273,0.488
1689861623.866,36.621,32.715,34.180,35.645,39.551
1689861623.870,30.762,31.250,33.691,29.785,51.270
1689861623.874,30.273,39.062,26.855,26.367,8.301
1689861623.877,31.738,34.668,33.203,32.227,-17.578
1689861623.881,31.738,32.227,34.180,41.992,-63.477
1689861623.885,34.668,42.480,25.879,48.828,-59.570
1689861623.889,30.273,37.598,31.738,46.387,47.852
1689861623.893,31.250,33.691,40.039,36.621,18.066
1689861623.897,34.180,34.180,42.969,33.203,-15.625
1689861623.901,30.273,31.250,40.527,38.574,26.367
1689861623.905,30.762,33.203,43.457,35.156,6.348
1689861623.909,32.715,30.762,42.480,38.574,-11.230
1689861623.913,36.621,29.297,31.250,37.598,18.555
1689861623.917,32.227,29.785,22.461,34.180,44.922
1689861623.920,31.250,38.086,29.785,43.945,28.809
1689861623.924,38.574,35.156,35.645,45.898,29.785
1689861623.928,37.109,30.762,37.598,40.039,61.035
1689861623.932,32.715,31.738,32.227,27.344,42.480
1689861623.936,30.273,31.250,19.531,24.902,-28.320
1689861623.940,34.180,31.738,23.438,28.809,5.859
1689861623.944,41.016,31.738,39.062,34.668,29.785
1689861623.948,34.668,32.227,46.875,25.391,48.828
1689861623.952,37.598,35.156,40.039,12.695,16.602
1689861623.956,47.363,34.180,38.086,15.137,18.555
1689861623.959,58.594,31.250,31.250,22.461,79.590
1689861623.963,77.148,40.039,21.973,24.414,74.219
1689861623.967,82.520,43.945,32.715,32.227,72.754
1689861623.971,90.820,37.109,40.039,59.082,115.234
1689861623.975,81.543,34.668,34.668,57.129,112.793
1689861623.979,45.410,34.668,26.855,24.902,15.137
1689861623.983,27.832,32.715,34.668,46.875,33.203
1689861623.987,43.457,37.109,39.551,79.102,79.590
1689861623.991,44.434,31.738,18.066,71.777,42.969
1689861623.995,21.484,11.230,-1.465,46.387,28.809
1689861623.999,54.199,26.855,17.090,63.965,32.227
1689861624.002,73.242,51.270,38.086,90.332,45.898
1689861624.006,53.223,40.039,27.832,73.242,32.715
1689861624.010,62.988,33.203,30.273,65.918,17.578
1689861624.014,67.383,35.645,30.762,63.477,34.668
1689861624.018,64.941,29.297,32.227,53.711,25.879
1689861624.022,70.312,26.855,34.180,65.430,39.551
1689861624.026,74.707,29.785,40.527,75.684,77.148
1689861624.030,71.289,26.367,44.434,62.988,78.613
1689861624.034,64.453,34.180,31.250,58.594,58.594
1689861624.038,61.035,40.527,19.531,61.035,62.500
1689861624.041,50.781,33.691,21.973,59.082,55.664
1689861624.045,55.176,39.062,36.621,63.965,40.527
1689861624.049,62.012,41.504,43.457,64.453,77.148
1689861624.053,50.781,26.855,43.945,48.340,91.309
1689861624.057,47.363,24.902,39.551,41.504,69.824
1689861624.061,55.176,26.367,25.391,48.340,49.805
1689861624.065,51.758,24.902,22.949,54.199,30.762
1689861624.069,52.246,31.250,39.551,57.129,34.180
1689861624.073,54.688,34.180,38.574,51.758,45.898
1689861624.077,52.734,37.598,29.785,47.852,-26.367
1689861624.081,52.246,36.621,36.621,48.340,-75.684
1689861624.084,49.805,33.203,30.273,47.363,-16.113
1689861624.088,51.270,34.668,20.020,55.176,30.273
1689861624.092,52.734,35.156,23.438,48.340,-6.348
1689861624.096,56.152,38.574,35.156,45.410,-5.859
1689861624.100,54.199,39.551,32.227,48.340,13.672
1689861624.104,48.340,35.156,30.762,52.246,-29.785
1689861624.108,40.527,34.180,33.691,50.293,14.160
1689861624.112,46.387,38.086,37.109,56.641,59.570
1689861624.116,49.805,38.086,46.875,52.734,19.043
1689861624.120,45.898,34.180,37.109,47.852,22.461
1689861624.123,49.805,34.180,23.438,59.570,64.453
1689861624.127,52.246,40.527,32.715,60.059,83.496
1689861624.131,47.363,37.109,45.410,61.035,62.012
1689861624.135,43.945,41.016,48.340,59.082,55.176
1689861624.139,45.898,42.480,36.133,49.316,46.387
1689861624.143,50.781,36.133,26.367,45.898,-4.883
1689861624.147,48.340,34.668,20.996,48.828,26.367
1689861624.151,44.434,34.180,17.090,41.504,52.246
1689861624.155,41.504,35.156,32.227,26.855,-23.438
1689861624.159,41.504,38.574,42.480,26.367,0.488
1689861624.163,51.270,41.992,44.434,41.016,60.059
1689861624.166,54.688,43.457,42.480,52.734,72.266
1689861624.170,53.223,45.898,34.180,45.898,6.836
1689861624.174,59.082,41.992,29.297,47.363,-32.227
1689861624.178,59.082,32.715,32.227,47.363,-37.598
1689861624.182,58.594,28.809,28.320,44.434,-24.902
1689861624.186,72.266,34.180,25.391,62.500,38.574
1689861624.190,69.336,31.250,29.297,66.406,117.676
1689861624.194,53.711,29.785,29.297,38.574,41.016
1689861624.198,62.012,46.387,31.250,42.480,-11.719
1689861624.202,62.988,42.480,35.645,46.875,49.805
1689861624.205,55.664,34.180,33.691,41.504,61.523
1689861624.209,53.711,39.062,28.809,49.316,62.988
1689861624.213,50.293,42.480,32.715,41.992,50.293
1689861624.217,59.570,44.922,32.227,48.340,16.602
1689861624.221,60.059,46.387,25.391,58.105,34.180
1689861624.225,48.828,37.598,21.973,45.898,68.359
1689861624.229,39.551,31.250,24.414,36.133,55.664
1689861624.233,34.180,32.715,32.715,36.133,94.727
1689861624.237,33.691,26.367,36.621,38.574,122.559
1689861624.241,38.086,25.391,23.438,32.227,114.258
1689861624.245,39.062,29.785,25.391,31.250,84.961
1689861624.248,37.109,33.203,39.062,48.340,54.688
1689861624.252,34.668,27.344,28.320,48.340,49.316
1689861624.256,34.668,27.344,25.391,31.250,0.977
1689861624.260,33.203,32.715,33.203,34.668,1.465
1689861624.264,34.668,30.273,36.133,48.340,64.941
1689861624.268,32.715,29.297,37.109,43.457,81.055
1689861624.272,34.180,32.227,41.504,41.504,71.777
1689861624.276,37.598,32.715,40.527,38.574,28.320
1689861624.280,29.785,25.391,25.391,29.785,47.852
1689861624.284,34.668,35.645,29.297,43.457,6.836
1689861624.287,32.715,33.203,38.574,37.109,44.434
1689861624.291,27.832,29.297,28.809,30.273,93.262
1689861624.295,36.133,35.645,21.973,42.969,36.621
1689861624.299,37.109,23.438,27.344,32.715,37.598
1689861624.303,32.227,20.996,30.273,29.297,-15.137
1689861624.307,37.598,27.832,29.297,48.828,5.371
1689861624.311,38.574,26.855,30.273,38.574,12.695
1689861624.315,34.668,31.250,39.062,23.438,34.668
1689861624.319,40.527,35.645,41.992,28.809,43.457
1689861624.323,38.086,34.180,41.504,29.785,-13.672
1689861624.327,39.062,39.062,41.504,39.551,-28.320
1689861624.330,37.598,43.457,37.598,39.062,-4.883
1689861624.334,24.414,34.180,41.016,25.391,-11.230
1689861624.338,26.855,28.320,35.645,27.832,-27.344
1689861624.342,36.621,31.738,26.855,30.273,-49.805
1689861624.346,35.645,28.320,24.902,43.457,19.531
1689861624.350,35.156,31.250,31.250,50.781,30.273
1689861624.354,32.227,35.645,37.598,24.414,-29.785
1689861624.358,28.320,30.273,32.715,16.602,28.809
1689861624.362,38.574,31.250,38.086,29.297,50.293
1689861624.366,45.410,42.480,47.852,37.598,50.293
1689861624.369,34.180,40.039,37.109,31.250,114.258
1689861624.373,30.762,33.203,34.180,32.227,90.820
1689861624.377,31.738,34.668,38.574,33.203,11.719
1689861624.381,28.320,32.227,38.086,31.738,4.395
1689861624.385,30.762,27.832,34.668,33.691,3.906
1689861624.389,30.762,34.668,42.969,33.203,20.996
1689861624.393,22.949,36.133,47.852,27.832,55.664
1689861624.397,29.297,37.598,43.457,26.367,34.180
1689861624.401,37.598,39.062,42.969,37.109,39.062
1689861624.405,39.551,34.668,35.645,50.781,59.570
1689861624.409,34.180,34.180,35.156,47.363,21.484
1689861624.412,30.273,35.645,43.945,35.645,39.551
1689861624.416,29.297,35.156,45.898,28.809,42.969
1689861624.420,33.691,30.273,36.621,27.344,15.137
1689861624.424,32.715,29.785,29.785,31.738,46.387
1689861624.428,26.855,34.668,34.180,31.250,61.035
1689861624.432,24.902,31.738,31.250,34.668,-18.066
1689861624.436,21.973,24.902,33.203,31.738,29.297
1689861624.440,23.438,26.855,36.133,18.066,75.195
1689861624.444,22.949,27.832,25.391,20.020,40.039
1689861624.448,24.902,27.832,22.461,30.273,35.645
1689861624.451,28.809,31.250,27.344,35.156,10.254
1689861624.455,27.344,37.109,42.969,29.297,21.484
1689861624.459,28.320,37.598,49.805,22.461,29.785
1689861624.463,33.203,35.156,38.574,32.227,48.828
1689861624.467,32.715,37.109,32.227,40.527,26.367
1689861624.471,29.785,41.504,31.738,35.156,5.859
1689861624.475,32.715,44.434,30.273,32.227,9.277
1689861624.479,34.668,47.363,31.738,33.203,0.488
1689861624.483,35.156,43.945,31.738,33.203,10.254
1689861624.487,33.691,34.180,30.762,30.762,5.371
1689861624.491,35.645,33.203,36.133,28.320,18.555
1689861624.494,35.645,37.109,34.668,35.156,27.832
1689861624.498,36.621,40.039,33.691,29.297,37.598
1689861624.502,36.133,39.062,33.691,29.785,6.836
1689861624.506,23.926,40.527,33.203,33.691,-19.531
1689861624.510,21.484,39.062,39.062,25.879,0.488
1689861624.514,26.855,40.039,38.574,22.949,-35.156
1689861624.518,24.414,41.992,29.785,20.020,27.832
1689861624.522,29.785,38.086,25.879,23.926,107.910
1689861624.526,37.109,43.945,27.832,39.062,68.848
1689861624.530,39.551,41.016,18.555,38.086,17.578
1689861624.533,42.480,42.480,26.367,43.945,14.160
1689861624.537,8.789,39.551,32.715,19.043,14.160
1689861624.541,-1.465,28.809,27.344,-4.395,-26.855
1689861624.545,10.254,30.273,35.645,18.555,-20.508
1689861624.549,0.488,27.832,44.434,14.648,-1.953
1689861624.553,0.977,30.273,48.340,23.926,47.852
1689861624.557,-5.371,32.715,45.410,22.461,75.684
1689861624.561,-9.277,37.598,32.227,-9.277,38.574
1689861624.565,8.789,40.039,33.203,-7.324,66.895
1689861624.569,17.578,40.527,40.039,15.625,39.551
1689861624.572,3.418,37.598,40.527,19.531,0.977
1689861624.576,9.277,31.738,44.434,12.207,4.395
1689861624.580,30.273,41.504,37.598,6.348,-42.480
1689861624.584,20.020,41.504,33.691,4.883,-11.230
1689861624.588,15.137,40.039,41.016,9.277,37.598
1689861624.592,25.879,37.598,38.574,20.996,14.160
1689861624.596,8.301,27.344,26.855,5.371,20.020
1689861624.600,1.465,27.832,30.273,-14.160,42.480
1689861624.604,14.648,38.574,35.645,7.324,7.812
1689861624.608,10.254,36.621,30.762,-0.977,2.441
1689861624.612,-2.441,25.879,38.086,-11.719,50.293
1689861624.615,-0.488,33.691,40.039,-1.953,61.523
1689861624.619,7.812,39.551,29.785,6.348,41.992
1689861624.623,9.766,36.133,37.109,19.531,-1.465
1689861624.627,8.301,35.156,39.551,22.949,44.434
1689861624.631,10.254,37.109,32.715,9.277,52.734
1689861624.635,3.418,35.156,33.203,-9.277,-11.230
1689861624.639,9.277,30.273,33.203,-2.930,-37.598
1689861624.643,15.625,26.855,33.691,9.766,-36.621
1689861624.647,2.441,29.785,34.668,16.602,23.438
1689861624.651,8.301,35.156,32.227,21.484,65.430
1689861624.654,16.602,29.785,37.598,19.531,76.172
1689861624.658,13.672,24.902,36.133,18.555,70.312
1689861624.662,25.879,34.668,29.297,22.949,12.207
1689861624.666,26.367,44.434,38.086,35.156,34.668
1689861624.670,12.207,43.457,38.574,48.828,122.559
1689861624.674,12.695,41.504,31.250,57.129,110.840
1689861624.678,27.832,41.504,23.926,49.805,85.938
1689861624.682,26.855,43.945,30.273,34.668,169.922
1689861624.686,16.602,43.945,33.203,79.102,108.398
1689861624.690,35.156,42.480,30.762,79.590,-42.480
1689861624.694,44.434,42.480,37.598,56.641,-15.625
1689861624.697,41.504,45.410,33.203,89.844,1.953
1689861624.701,37.109,43.457,35.156,101.074,-32.715
1689861624.705,41.504,37.598,39.551,7.812,-29.785
1689861624.709,43.457,38.574,32.715,-70.312,21.973
1689861624.713,35.645,42.480,31.250,-32.715,73.730
1689861624.717,50.781,49.316,28.320,-18.555,109.375
1689861624.721,62.500,45.898,20.508,-9.277,50.293
1689861624.725,49.316,36.621,26.367,19.043,1.465
1689861624.729,40.039,41.016,28.809,32.227,53.223
1689861624.733,36.621,42.969,19.043,39.551,63.965
1689861624.736,20.996,33.691,23.438,59.082,49.805
1689861624.740,15.625,31.738,28.809,69.336,33.203
1689861624.744,-7.324,30.762,21.484,64.453,51.270
1689861624.748,-11.719,29.297,30.273,48.340,53.223
1689861624.752,2.441,33.203,44.922,25.391,26.367
1689861624.756,-1.953,41.992,50.293,16.113,32.227
1689861624.760,6.836,42.969,53.223,19.531,22.461
1689861624.764,17.090,46.875,47.852,20.508,-2.441
1689861624.768,0.000,41.016,44.434,17.090,32.227
1689861624.772,15.137,33.203,47.363,14.648,80.566
1689861624.776,21.484,29.297,38.574,25.391,67.871
1689861624.779,13.672,34.180,39.062,37.109,65.918
1689861624.783,38.574,41.504,40.527,35.156,17.090
1689861624.787,41.016,38.086,39.062,38.086,6.348
1689861624.791,34.180,31.738,41.992,39.551,0.977
1689861624.795,23.926,26.855,39.062,34.180,25.391
1689861624.799,15.137,21.484,42.969,35.645,156.738
1689861624.803,35.645,25.391,41.016,35.645,98.145
1689861624.807,44.922,37.598,39.551,39.551,42.969
1689861624.811,35.645,41.504,43.457,33.691,37.109
1689861624.815,40.039,38.086,45.898,27.832,-55.176
1689861624.818,43.457,35.156,45.898,41.016,-5.859
1689861624.822,40.039,29.785,41.504,42.480,-16.602
1689861624.826,51.270,30.273,41.504,43.457,-37.109
1689861624.830,45.410,31.738,33.691,59.082,14.648
1689861624.834,23.926,36.621,35.156,60.059,22.949
1689861624.838,35.156,38.086,44.922,42.480,-17.578
1689861624.842,35.156,29.785,42.969,31.250,-19.531
1689861624.846,35.156,26.855,44.922,23.438,42.969
1689861624.850,32.715,28.809,50.293,14.648,41.016
1689861624.854,33.691,32.715,49.316,27.344,49.805
1689861624.858,51.270,33.691,45.410,40.039,50.293
1689861624.861,36.133,34.668,46.387,34.180,21.973
1689861624.865,20.020,31.738,44.434,36.621,20.020
1689861624.869,14.648,28.320,35.645,47.852,44.922
1689861624.873,12.695,33.203,33.691,39.551,8.789
1689861624.877,24.902,29.785,40.039,11.719,-10.254
1689861624.881,21.973,22.461,42.969,24.414,7.812
1689861624.885,4.883,27.832,41.016,42.969,7.324
1689861624.889,17.578,31.250,39.062,29.297,14.648
1689861624.893,20.996,27.344,34.668,10.254,29.297
1689861624.897,6.348,32.227,35.156,5.859,52.734
1689861624.900,15.625,36.133,41.992,7.324,24.902
1689861624.904,26.367,38.574,50.781,19.531,27.832
1689861624.908,23.438,37.109,49.316,29.785,51.270
1689861624.912,7.812,32.715,41.016,15.625,40.527
1689861624.916,13.184,26.367,31.738,1.953,35.156
1689861624.920,17.578,23.926,34.668,2.930,44.434
1689861624.924,-1.953,31.738,42.969,4.395,47.852
1689861624.928,2.930,33.691,27.344,0.000,50.293
1689861624.932,40.039,34.180,24.902,4.883,16.602
1689861624.936,29.785,34.180,35.645,16.113,20.020
1689861624.940,4.395,28.320,26.367,16.113,22.461
1689861624.943,23.926,31.738,26.367,24.414,-22.461
1689861624.947,28.320,39.551,32.227,17.578,-16.113
1689861624.951,24.902,35.645,35.156,8.301,53.223
1689861624.955,23.926,30.762,30.762,13.184,26.855
1689861624.959,26.367,30.762,29.785,11.719,-4.883
1689861624.963,25.879,28.809,39.551,14.160,8.301
1689861624.967,15.625,25.879,34.180,14.160,30.273
1689861624.971,16.602,29.297,26.855,8.301,48.828
1689861624.975,31.250,36.133,28.320,9.766,29.785
1689861624.979,38.086,38.574,32.715,17.090,49.316
1689861624.982,29.785,37.109,32.715,21.484,40.527
1689861624.986,28.320,30.762,33.691,9.766,-4.883
1689861624.990,26.855,31.250,37.598,8.789,9.766
1689861624.994,22.461,31.250,40.527,20.020,47.363
1689861624.998,21.484,29.297,41.504,20.020,-6.348
1689861625.002,22.461,35.645,37.598,16.602,11.719
1689861625.006,28.809,34.668,36.133,20.020,65.430
1689861625.010,23.438,29.297,41.016,29.297,29.785
1689861625.014,30.273,29.785,28.809,41.504,-18.555
1689861625.018,32.227,34.180,20.996,40.039,-14.160
1689861625.022,24.902,33.203,36.621,47.852,55.664
1689861625.025,27.832,30.273,45.410,46.387,74.707
1689861625.029,22.949,31.250,43.945,24.902,18.555
1689861625.033,27.832,30.273,35.645,26.855,15.137
1689861625.037,22.461,35.156,33.203,26.367,37.109
1689861625.041,22.949,41.016,37.598,20.996,25.879
1689861625.045,31.738,37.109,31.250,22.461,61.035
1689861625.049,23.926,26.855,29.297,29.297,37.109
1689861625.053,32.227,27.832,34.180,36.133,-6.348
1689861625.057,38.574,31.738,28.809,33.203,76.660
1689861625.061,34.668,34.180,27.832,33.691,105.957
1689861625.064,31.738,32.715,30.762,53.223,12.695
1689861625.068,41.992,36.133,36.133,49.805,3.906
1689861625.072,58.105,40.039,44.434,37.598,45.898
1689861625.076,46.875,38.086,41.992,34.668,49.805
1689861625.080,34.180,35.645,29.785,37.598,73.730
1689861625.084,29.785,31.738,26.367,42.969,36.133
1689861625.088,33.203,30.273,32.227,43.457,0.000
1689861625.092,35.645,30.762,35.645,41.016,16.602
1689861625.096,32.227,31.250,26.367,30.273,51.270
1689861625.100,36.621,35.156,15.625,28.809,39.551
1689861625.104,37.109,34.668,28.320,26.367,-1.465
1689861625.107,29.785,34.180,39.062,22.461,34.180
1689861625.111,31.250,38.574,41.016,28.320,-6.348
1689861625.115,43.457,42.480,32.227,25.391,-79.590
1689861625.119,39.551,37.598,27.832,19.531,-13.184
1689861625.123,33.203,34.668,36.133,23.926,20.020
1689861625.127,44.434,35.156,34.668,40.039,47.363
1689861625.131,40.527,33.691,27.344,36.133,43.457
1689861625.135,27.832,33.203,31.738,20.508,20.996
1689861625.139,22.461,33.203,47.852,15.625,36.133
1689861625.143,28.809,32.715,52.246,25.879,23.438
1689861625.146,34.180,32.227,39.062,31.250,51.270
1689861625.150,24.902,39.551,27.832,20.996,75.684
1689861625.154,21.973,41.992,31.738,19.043,29.785
1689861625.158,25.879,29.785,31.250,26.855,3.418
1689861625.162,41.504,27.344,26.367,31.250,51.758
1689861625.166,34.668,31.250,21.484,25.391,50.781
1689861625.170,25.391,29.297,18.555,25.391,12.207
1689861625.174,32.715,28.809,25.391,30.762,-19.043
1689861625.178,29.297,26.855,30.273,33.691,-52.246
1689861625.182,23.926,30.762,36.621,22.949,-21.973
1689861625.186,33.203,36.133,34.668,32.715,23.926
1689861625.189,42.480,34.180,28.320,47.363,9.277
1689861625.193,41.016,30.762,33.203,27.832,-25.879
1689861625.197,41.992,30.762,31.738,27.832,32.715
1689861625.201,45.410,34.668,32.227,41.016,57.617
1689861625.205,35.645,30.762,36.621,58.105,57.617
1689861625.209,23.926,27.344,32.715,55.664,90.820
1689861625.213,32.227,31.738,33.691,30.273,126.953
1689861625.217,40.527,35.645,32.227,16.113,131.348
1689861625.221,37.598,34.180,28.809,15.625,93.262
1689861625.225,37.109,30.273,30.762,25.879,78.613
1689861625.228,38.574,31.250,34.668,37.598,32.715
1689861625.232,41.016,32.227,29.785,45.410,-25.391
1689861625.236,36.133,34.180,26.855,44.922,27.832
1689861625.240,34.668,31.738,30.273,27.344,83.496
1689861625.244,36.133,30.762,29.297,30.762,8.789
1689861625.248,38.086,38.086,38.086,37.109,-4.883
1689861625.252,41.992,36.621,49.805,37.598,50.293
1689861625.256,40.039,33.691,50.293,33.203,58.105
1689861625.260,37.598,35.156,34.180,32.227,37.109
1689861625.264,39.551,27.344,29.785,35.645,49.805
1689861625.268,44.434,33.691,46.875,37.109,54.688
1689861625.271,43.457,36.621,46.875,36.621,0.000
1689861625.275,31.738,30.273,31.250,27.832,-14.160
1689861625.279,32.715,30.762,25.879,23.926,11.230
1689861625.283,41.016,32.227,28.320,33.691,25.879
1689861625.287,42.969,32.715,36.621,42.969,33.691
1689861625.291,35.645,29.297,38.574,33.203,51.758
1689861625.295,38.574,28.320,44.922,23.438,69.336
1689861625.299,46.387,31.738,43.457,34.180,43.945
1689861625.303,37.598,33.203,29.297,38.574,0.000
1689861625.307,30.762,32.227,32.227,31.738,37.109
1689861625.310,26.855,27.832,43.945,21.973,3.418
1689861625.314,26.855,26.855,53.223,23.926,-7.324
1689861625.318,32.227,32.715,55.664,28.809,71.289
1689861625.322,34.180,33.691,44.922,30.762,19.531
1689861625.326,39.062,31.250,30.762,37.109,-6.348
1689861625.330,41.016,33.203,32.227,36.133,76.660
1689861625.334,35.645,29.297,36.621,30.273,100.098
1689861625.338,35.156,30.273,33.203,30.273,48.828
1689861625.342,33.691,31.738,24.902,41.016,-8.301
1689861625.346,38.086,30.273,32.715,42.969,26.367
1689861625.350,35.156,31.738,43.945,33.691,23.926
1689861625.353,29.297,30.762,36.133,24.902,34.668
1689861625.357,23.926,26.855,36.133,16.113,61.523
1689861625.361,23.926,21.973,36.133,19.531,6.348
1689861625.365,35.156,26.855,34.180,28.809,34.668
1689861625.369,33.691,28.809,41.504,15.137,36.133
1689861625.373,23.438,33.691,36.133,11.230,0.488
1689861625.377,32.227,39.062,32.715,25.391,35.156
1689861625.381,30.762,30.273,40.039,29.785,59.082
1689861625.385,21.973,26.367,34.668,22.949,-37.598
1689861625.389,31.738,28.320,30.273,18.555,-57.617
1689861625.392,29.785,28.809,35.645,15.625,45.898
1689861625.396,22.461,27.832,40.039,12.207,59.082
1689861625.400,31.250,34.668,39.551,19.043,-11.230
1689861625.404,38.086,46.387,31.250,24.902,-34.668
1689861625.408,35.156,36.133,22.461,20.020,17.578
1689861625.412,25.391,24.414,28.320,22.461,53.223
1689861625.416,27.344,31.738,36.621,17.578,47.852
1689861625.420,30.273,33.691,42.969,16.602,37.109
1689861625.424,27.344,31.250,42.969,37.598,60.547
1689861625.428,33.203,32.227,36.621,41.992,101.562
1689861625.432,36.621,37.598,35.156,41.504,52.246
1689861625.435,38.086,35.156,34.668,34.180,-8.301
1689861625.439,32.715,28.809,30.762,27.344,-37.598
1689861625.443,20.996,30.762,32.715,33.203,-19.043
1689861625.447,25.879,36.621,35.645,26.367,44.434
1689861625.451,26.367,35.156,41.504,19.043,93.262
1689861625.455,25.879,31.250,48.828,20.996,59.082
1689861625.459,27.832,31.250,48.828,5.371,6.348
1689861625.463,36.621,36.133,45.898,3.418,5.859
1689861625.467,44.434,44.922,47.852,-0.488,32.227
1689861625.471,32.715,41.016,45.410,-21.973,46.387
1689861625.474,19.043,34.180,43.945,-35.645,33.203
1689861625.478,10.742,32.227,49.805,-44.922,20.020
1689861625.482,-11.719,29.297,55.664,-31.738,10.254
1689861625.486,-32.227,29.297,56.152,-11.230,24.902
1689861625.490,-40.039,28.809,59.570,-8.301,44.922
1689861625.494,-47.363,29.297,62.500,-18.555,33.203
1689861625.498,-43.945,34.180,67.871,-21.973,9.277
1689861625.502,-47.852,36.133,71.289,-9.277,41.016
1689861625.506,-47.852,37.598,79.590,-12.695,52.246
1689861625.510,-46.387,30.273,80.078,-35.645,2.441
1689861625.514,-51.758,25.879,70.312,-49.805,-19.043
1689861625.517,-41.992,28.320,76.172,-43.945,-2.930
1689861625.521,-37.109,24.902,70.312,-43.945,-37.109
1689861625.525,-43.457,27.832,62.500,-39.062,-26.367
1689861625.529,-40.527,37.109,70.801,-22.949,30.273
1689861625.533,-38.574,33.203,70.801,-38.086,13.184
1689861625.537,-40.527,29.297,60.059,-49.316,43.945
1689861625.541,-40.527,35.645,63.477,-29.785,25.879
1689861625.545,-41.016,39.551,70.801,-28.320,30.273
1689861625.549,-42.480,29.297,71.289,-47.363,93.262
1689861625.553,-33.691,29.785,72.754,-39.551,62.500
1689861625.556,-16.602,39.551,69.824,-23.926,12.207
1689861625.560,-25.391,37.109,56.152,-22.949,39.551
1689861625.564,-35.645,29.785,53.223,-33.203,25.879
1689861625.568,-32.227,23.926,59.082,-34.180,6.836
1689861625.572,-21.973,25.879,64.453,-10.254,-6.348
1689861625.576,-11.719,30.273,59.570,-14.648,0.488
1689861625.580,-2.441,29.785,55.176,-21.973,20.020
1689861625.584,-7.812,28.809,57.617,-7.324,70.801
1689861625.588,-15.625,27.832,57.617,-5.371,99.609
1689861625.592,-2.930,25.879,61.523,3.418,47.852
1689861625.596,-0.488,26.367,55.176,11.230,74.707
1689861625.599,0.000,30.762,45.410,2.441,34.668
1689861625.603,11.230,32.227,35.645,19.043,25.391
1689861625.607,27.344,32.715,36.621,33.203,66.895
1689861625.611,41.992,31.250,41.992,34.180,22.949
1689861625.615,49.805,26.367,37.598,41.992,26.855
1689861625.619,55.176,24.902,32.227,49.805,40.527
1689861625.623,61.035,28.320,20.020,66.895,17.090
1689861625.627,71.289,32.227,19.531,76.172,14.160
1689861625.631,83.008,29.785,21.484,72.754,28.809
1689861625.635,83.008,28.809,22.949,75.684,21.973
1689861625.638,79.590,28.320,21.973,75.195,11.230
1689861625.642,85.938,31.250,20.508,81.543,15.137
1689861625.646,88.867,33.691,21.484,92.285,31.738
1689861625.650,90.820,29.785,14.160,94.727,45.410
1689861625.654,96.191,34.180,16.113,87.402,48.828
1689861625.658,100.586,35.156,28.320,88.379,19.531
1689861625.662,92.773,27.344,20.020,99.609,35.156
1689861625.666,83.984,28.809,18.066,81.543,41.016
1689861625.670,88.867,38.574,24.414,72.754,54.688
1689861625.674,90.332,38.086,24.414,78.125,65.430
1689861625.677,92.773,30.762,17.578,77.637,35.645
1689861625.681,91.797,33.691,10.742,74.219,45.410
1689861625.685,93.262,40.527,12.207,76.660,43.457
1689861625.689,95.215,39.551,8.789,67.871,15.137
1689861625.693,78.613,34.668,16.113,49.316,11.719
1689861625.697,75.684,33.203,26.855,55.664,25.391
1689861625.701,73.730,32.227,31.738,59.570,17.090
1689861625.705,56.152,34.180,35.156,44.434,6.348
1689861625.709,46.875,33.203,37.598,29.297,29.785
1689861625.713,40.039,41.504,42.969,21.973,62.988
1689861625.717,25.391,65.918,45.898,8.301,44.922
1689861625.720,-4.395,53.223,55.664,-13.672,7.324
1689861625.724,-25.879,36.133,62.500,-27.832,79.102
1689861625.728,-35.156,45.410,58.594,-38.086,84.961
1689861625.732,-64.453,46.875,55.176,-72.266,13.184
1689861625.736,-79.590,41.992,50.293,-81.543,25.391
1689861625.740,-79.590,37.598,63.477,-70.801,-20.508
1689861625.744,-81.543,39.551,77.148,-70.312,1.465
1689861625.748,-80.566,46.387,71.289,-62.500,53.711
1689861625.752,-80.566,48.828,57.129,-64.941,10.742
1689861625.756,-81.543,49.805,63.965,-83.984,38.086
1689861625.759,-77.637,43.457,78.613,-69.824,38.086
1689861625.763,-65.430,35.645,79.590,-51.270,22.461
1689861625.767,-62.988,35.645,64.453,-53.223,-9.277
1689861625.771,-56.641,32.715,58.105,-39.551,6.348
1689861625.775,-42.480,26.367,59.570,-27.344,6.348
1689861625.779,-23.438,32.715,62.500,-12.207,-41.992
1689861625.783,-8.301,42.969,69.336,8.301,30.273
1689861625.787,2.441,38.086,61.523,13.184,27.344
1689861625.791,10.254,32.715,45.410,11.230,-34.668
1689861625.795,23.926,31.738,42.480,25.391,19.531
1689861625.799,46.875,34.668,39.551,50.293,30.273
1689861625.802,52.734,38.086,19.531,64.941,26.367
1689861625.806,55.664,37.598,20.996,70.312,54.688
1689861625.810,66.406,30.762,23.926,75.684,34.180
1689861625.814,77.637,25.879,13.184,80.078,22.949
1689861625.818,83.984,20.020,15.137,78.613,52.246
1689861625.822,93.262,23.438,16.113,90.332,34.668
1689861625.826,96.680,27.832,13.184,100.586,13.184
1689861625.830,95.215,27.344,12.207,96.680,10.254
1689861625.834,104.004,32.715,17.090,88.867,-20.020
1689861625.838,113.281,32.715,20.508,92.773,8.789
1689861625.841,117.188,30.273,6.836,109.375,-12.695
1689861625.845,108.887,28.809,2.441,111.816,39.062
1689861625.849,109.863,26.855,1.953,107.910,86.426
1689861625.853,110.840,25.391,0.977,112.305,56.641
1689861625.857,110.840,33.203,20.508,115.723,58.105
1689861625.861,116.211,33.691,31.738,116.211,44.922
1689861625.865,98.633,17.578,20.020,102.539,-6.348
1689861625.869,87.891,20.020,16.602,100.098,30.762
1689861625.873,94.238,23.438,4.883,95.703,49.316
1689861625.877,94.727,17.090,0.977,93.750,15.625
1689861625.881,96.191,23.438,14.160,100.586,5.859
1689861625.884,88.379,20.996,20.996,88.379,-8.789
1689861625.888,88.867,14.160,19.531,85.449,45.410
1689861625.892,100.098,19.043,15.625,94.238,36.621
1689861625.896,97.168,23.926,11.230,94.727,-59.570
1689861625.900,104.492,27.832,10.254,103.027,34.180
1689861625.904,103.516,28.320,13.184,100.098,84.473
1689861625.908,96.191,26.855,9.766,84.473,31.250
1689861625.912,93.750,25.391,17.578,79.590,79.102
1689861625.916,90.820,21.973,16.602,78.613,48.340
1689861625.920,90.332,22.461,17.578,81.543,-10.254
1689861625.923,92.285,27.832,19.043,85.938,6.836
1689861625.927,95.215,30.762,13.672,80.566,44.434
1689861625.931,97.168,27.832,20.996,79.102,31.250
1689861625.935,95.703,30.762,19.531,87.891,-5.859
1689861625.939,99.121,36.621,18.066,91.309,6.836
1689861625.943,104.980,29.785,25.391,89.355,55.664
1689861625.947,92.773,26.855,26.367,79.102,35.645
1689861625.951,83.496,31.738,18.066,71.289,-33.203
1689861625.955,84.961,24.902,21.973,72.266,-9.277
1689861625.959,80.078,23.926,24.414,74.219,-8.789
1689861625.963,78.613,28.320,20.508,78.125,-6.348
1689861625.966,81.543,29.785,39.551,79.102,13.184
1689861625.970,71.777,29.785,39.551,63.477,41.504
1689861625.974,64.941,24.414,25.391,53.711,75.195
1689861625.978,71.289,29.297,24.902,56.641,77.637
1689861625.982,66.406,29.297,19.531,51.270,59.570
1689861625.986,62.988,27.832,26.855,52.734,26.367
1689861625.990,63.477,34.668,34.180,56.152,46.875
1689861625.994,63.965,33.691,33.203,47.363,5.859
1689861625.998,64.453,30.273,30.273,52.734,41.992
1689861626.002,56.152,31.250,20.020,60.547,88.867
1689861626.005,53.223,27.832,23.926,54.199,16.602
1689861626.009,59.082,23.926,38.086,50.293,4.395
1689861626.013,55.664,24.414,34.180,48.340,85.449
1689861626.017,54.688,26.855,27.832,51.270,83.008
1689861626.021,62.500,30.762,32.227,59.082,37.598
1689861626.025,60.547,25.879,24.414,50.781,62.012
1689861626.029,46.875,21.484,18.066,39.062,13.672
1689861626.033,45.410,27.344,35.156,42.969,6.836
1689861626.037,44.434,26.367,35.156,44.434,7.324
1689861626.041,47.363,27.344,21.973,43.945,12.695
1689861626.045,54.199,33.691,27.344,53.223,8.301
1689861626.048,47.363,29.297,24.902,56.152,12.207
1689861626.052,45.898,27.344,26.855,51.758,22.461
1689861626.056,41.504,22.461,21.973,36.133,48.828
1689861626.060,42.480,20.996,16.113,30.762,81.055
1689861626.064,52.246,26.855,21.484,40.039,69.336
1689861626.068,52.734,30.273,22.949,37.109,29.785
1689861626.072,49.316,34.668,31.250,36.621,14.160
1689861626.076,51.758,36.133,37.598,34.668,-8.789
1689861626.080,50.293,32.715,37.598,35.645,-21.973
1689861626.084,52.246,27.832,36.133,40.527,8.301
1689861626.087,48.828,27.832,31.738,35.645,5.859
1689861626.091,42.480,31.250,32.715,37.109,24.902
1689861626.095,41.992,26.855,34.180,40.527,67.871
1689861626.099,43.945,31.250,34.180,47.363,60.547
1689861626.103,48.340,33.691,36.133,42.480,33.203
1689861626.107,49.316,30.273,36.133,38.574,80.078
1689861626.111,41.992,31.250,40.527,40.039,83.008
1689861626.115,42.480,37.109,45.898,40.039,30.273
1689861626.119,47.852,38.086,42.969,49.316,25.879
1689861626.123,44.922,24.414,33.691,50.781,20.996
1689861626.127,41.992,28.320,31.738,56.641,11.719
1689861626.130,45.898,33.203,41.504,52.246,74.707
1689861626.134,36.621,27.344,44.434,44.434,108.398
1689861626.138,33.203,25.879,43.457,53.711,39.062
1689861626.142,44.434,21.484,44.434,52.734,-30.762
1689861626.146,32.715,23.438,41.504,41.016,-2.930
1689861626.150,28.809,26.367,39.551,42.969,77.148
1689861626.154,35.156,27.832,34.180,46.387,42.480
1689861626.158,36.621,35.156,36.133,40.527,-20.020
1689861626.162,34.668,34.180,36.133,42.480,48.828
1689861626.166,31.738,30.762,36.133,49.316,32.715
1689861626.169,38.086,35.156,40.527,39.551,-30.273
1689861626.173,42.969,38.086,44.922,42.480,26.367
1689861626.177,36.621,28.320,43.457,44.922,38.574
1689861626.181,31.250,22.949,34.180,43.945,26.855
1689861626.185,27.832,23.438,26.855,42.969,48.828
1689861626.189,22.949,21.484,21.973,30.273,56.152
1689861626.193,28.809,22.949,25.391,32.715,26.367
1689861626.197,35.645,26.855,33.203,25.879,30.273
1689861626.201,40.039,25.879,24.902,20.996,16.113
1689861626.205,44.922,21.973,18.066,21.973,19.043
1689861626.209,45.898,25.391,23.438,15.137,2.930
1689861626.212,57.617,35.156,30.762,10.254,0.977
1689861626.216,64.453,34.180,30.762,7.324,54.688
1689861626.220,58.105,34.668,32.715,11.230,40.039
1689861626.224,54.199,39.551,35.156,6.348,11.719
1689861626.228,45.898,31.738,28.320,14.648,48.828
1689861626.232,30.762,24.414,29.297,29.297,70.312
1689861626.236,26.367,29.785,37.598,41.504,11.719
1689861626.240,28.320,33.691,36.621,43.945,-21.973
1689861626.244,25.879,29.785,36.621,41.992,8.789
1689861626.248,24.414,29.785,33.203,40.039,20.020
1689861626.251,30.273,32.227,29.785,37.598,65.918
1689861626.255,33.691,33.691,35.645,35.156,70.312
1689861626.259,32.715,36.621,37.109,40.039,16.113
1689861626.263,27.832,30.762,36.133,34.668,50.781
1689861626.267,25.879,21.484,37.598,26.367,41.992
1689861626.271,31.738,27.832,35.156,41.504,-14.160
1689861626.275,30.762,33.691,37.109,48.340,-11.719
1689861626.279,29.785,31.250,35.156,42.969,15.137
1689861626.283,30.273,29.297,31.250,39.551,-3.906
1689861626.287,22.949,31.738,41.504,38.086,-17.578
1689861626.291,21.973,35.645,45.410,37.109,-10.742
1689861626.294,20.508,30.762,41.504,21.973,30.273
1689861626.298,20.508,27.832,32.715,19.043,47.852
1689861626.302,26.855,33.691,31.250,35.645,27.832
1689861626.306,22.461,38.086,39.551,37.598,-5.859
1689861626.310,23.926,37.598,35.156,31.250,-14.648
1689861626.314,31.738,33.691,33.691,25.879,-13.672
1689861626.318,31.250,30.762,40.527,32.715,23.438
1689861626.322,30.273,27.832,33.691,29.785,78.125
1689861626.326,35.156,32.227,30.273,21.973,68.359
1689861626.330,42.480,35.645,33.691,29.785,83.008
1689861626.333,49.805,33.691,34.668,41.016,44.922
1689861626.337,55.176,30.762,37.598,43.945,-13.184
1689861626.341,45.898,30.762,41.016,37.598,-27.832
1689861626.345,40.039,34.180,45.410,22.461,48.340
1689861626.349,47.852,43.945,45.410,22.949,77.148
1689861626.353,45.410,39.062,32.227,29.297,-3.418
1689861626.357,43.945,31.738,30.762,27.832,23.926
1689861626.361,49.805,44.434,30.273,32.715,56.641
1689861626.365,52.246,40.527,31.250,36.621,-2.930
1689861626.369,52.734,35.645,41.992,37.598,22.461
1689861626.373,52.246,35.645,42.480,32.227,66.895
1689861626.376,53.711,33.203,41.016,30.762,6.348
1689861626.380,45.410,32.227,41.016,41.016,-20.508
1689861626.384,39.551,34.180,38.086,34.180,-8.301
1689861626.388,40.039,36.133,36.621,26.367,11.230
1689861626.392,36.133,35.645,35.156,15.625,9.766
1689861626.396,43.457,36.621,37.598,22.461,23.438
1689861626.400,46.387,31.738,36.621,39.551,77.148
1689861626.404,42.969,36.133,36.133,34.180,53.711
1689861626.408,40.527,41.504,25.879,34.668,8.789
1689861626.412,40.527,43.945,26.855,27.832,30.762
1689861626.415,36.133,34.180,41.504,17.578,75.684
1689861626.419,34.180,27.344,41.992,22.949,87.891
1689861626.423,41.016,27.344,46.875,32.715,47.363
1689861626.427,44.922,27.344,51.270,33.203,-17.090
1689861626.431,33.203,32.715,39.551,24.902,-20.508
1689861626.435,28.809,35.645,28.320,14.648,49.316
1689861626.439,35.645,33.691,31.738,16.113,59.570
1689861626.443,40.039,31.738,39.062,31.738,9.766
1689861626.447,51.270,33.691,41.992,36.621,25.879
1689861626.451,49.805,37.598,41.992,35.156,113.281
1689861626.455,46.387,37.598,41.504,41.016,56.641
1689861626.458,50.293,29.297,33.691,49.316,-42.480
1689861626.462,48.828,24.414,35.156,49.805,4.883
1689861626.466,47.363,25.391,36.621,45.410,-3.418
1689861626.470,46.875,28.320,37.598,46.387,4.395
1689861626.474,43.457,28.320,40.527,44.434,34.180
1689861626.478,39.551,24.902,24.414,40.527,39.551
1689861626.482,33.203,27.344,21.973,32.227,69.824
1689861626.486,38.086,26.367,35.156,36.621,22.949
1689861626.490,41.016,30.762,44.922,43.945,46.387
1689861626.494,38.086,35.645,44.434,34.668,86.914
1689861626.497,37.598,30.762,39.551,29.297,64.941
1689861626.501,33.203,29.785,39.062,32.227,-0.488
1689861626.505,35.645,34.180,35.645,40.527,7.812
1689861626.509,37.598,34.668,32.715,40.527,10.254
1689861626.513,31.250,33.691,31.250,32.715,12.695
1689861626.517,35.645,35.645,22.461,30.762,64.453
1689861626.521,31.738,30.273,16.602,26.855,41.992
1689861626.525,29.297,28.809,26.367,35.156,40.039
1689861626.529,32.227,33.203,37.109,34.180,54.688
1689861626.533,34.180,30.762,35.156,24.902,56.152
1689861626.537,38.086,31.250,30.273,37.598,53.223
1689861626.540,36.621,29.785,33.203,35.156,41.016
1689861626.544,34.180,25.879,35.156,30.762,37.598
1689861626.548,25.391,28.809,34.180,31.250,50.781
1689861626.552,27.344,41.992,38.574,31.250,94.238
1689861626.556,31.738,31.738,35.645,29.785,35.645
1689861626.560,31.738,19.043,30.273,30.762,-19.531
1689861626.564,24.414,23.926,28.809,31.250,60.547
1689861626.568,20.020,22.461,32.227,29.785,91.309
1689861626.572,26.367,30.273,44.922,26.367,31.250
1689861626.576,25.391,35.645,49.805,26.855,-4.883
1689861626.579,31.250,34.668,43.457,37.598,2.441
1689861626.583,26.367,23.926,28.809,32.227,-4.883
1689861626.587,21.973,19.043,22.949,25.391,-15.625
1689861626.591,27.832,25.391,26.367,29.297,-2.930
1689861626.595,32.227,35.156,27.832,34.668,46.875
1689861626.599,37.109,34.668,28.809,42.480,22.461
1689861626.603,36.133,27.832,24.902,42.969,-19.531
1689861626.607,36.133,28.809,30.762,43.457,11.230
1689861626.611,40.527,31.250,29.297,43.457,24.902
1689861626.615,44.922,32.715,29.785,30.273,9.277
1689861626.619,42.969,38.574,41.016,39.062,32.227
1689861626.622,36.133,33.691,41.504,37.598,53.223
1689861626.626,35.156,33.203,40.527,31.738,49.316
1689861626.630,34.668,40.527,39.551,31.738,62.500
1689861626.634,37.109,35.645,36.133,29.785,30.273
1689861626.638,37.598,32.715,33.203,46.875,-2.930
1689861626.642,35.156,31.738,33.203,51.758,9.766
1689861626.646,35.156,28.320,20.508,37.598,25.879
1689861626.650,28.320,29.297,19.043,34.180,40.039
1689861626.654,28.320,32.715,34.180,34.180,64.941
