timestamps,TP9,AF7,AF8,TP10,Right AUX
1688994306.757,21.973,38.574,26.855,1.465,-6.836
1688994306.761,28.320,37.109,24.902,11.719,12.695
1688994306.765,31.250,37.598,24.414,20.508,12.695
1688994306.769,22.461,34.180,28.809,23.926,-14.160
1688994306.773,17.578,34.668,29.297,22.949,23.926
1688994306.777,26.367,29.785,25.879,29.785,11.230
1688994306.781,36.133,25.391,28.809,25.391,103.027
1688994306.785,30.762,24.414,27.832,24.414,131.836
1688994306.789,27.344,18.555,21.973,33.203,124.512
1688994306.793,29.297,17.090,23.438,36.133,76.660
1688994306.797,25.879,20.508,26.855,36.621,-2.441
1688994306.800,24.414,21.973,25.879,42.969,11.719
1688994306.804,18.066,22.949,30.762,58.105,70.312
1688994306.808,15.137,20.020,40.527,42.480,61.523
1688994306.812,18.555,29.297,36.621,29.297,3.418
1688994306.816,12.207,34.180,32.227,31.250,7.812
1688994306.820,22.949,25.879,30.762,29.785,57.129
1688994306.824,45.410,31.250,20.508,43.945,95.215
1688994306.828,36.621,36.621,23.926,49.805,33.691
1688994306.832,5.371,32.715,31.738,19.043,60.059
1688994306.836,1.953,26.367,32.227,8.789,96.680
1688994306.840,21.484,24.902,30.273,33.691,75.684
1688994306.843,33.203,28.320,21.484,42.969,26.367
1688994306.847,28.809,26.367,24.414,51.758,1.953
1688994306.851,26.855,25.879,28.809,47.363,51.758
1688994306.855,27.344,34.668,26.367,30.762,38.086
1688994306.859,28.320,34.180,25.879,33.691,2.930
1688994306.863,32.715,33.691,24.902,36.621,-3.906
1688994306.867,31.738,39.551,20.508,36.133,13.184
1688994306.871,20.996,30.762,21.484,33.203,38.086
1688994306.875,8.789,25.879,28.809,27.832,35.645
1688994306.879,13.184,31.250,31.738,33.203,-9.277
1688994306.882,23.926,30.273,31.250,43.457,-47.363
1688994306.886,26.855,29.297,32.715,36.133,30.762
1688994306.890,18.555,24.902,33.203,20.020,52.734
1688994306.894,10.254,20.508,28.809,18.066,17.578
1688994306.898,17.090,19.531,28.320,20.020,23.438
1688994306.902,11.719,20.020,32.227,25.391,46.387
1688994306.906,4.883,22.461,38.086,35.645,64.941
1688994306.910,11.230,20.508,37.109,30.762,61.035
1688994306.914,22.461,22.461,36.133,24.414,27.344
1688994306.918,25.879,23.438,39.062,26.855,16.113
1688994306.922,22.949,21.973,38.086,37.109,15.625
1688994306.925,35.156,19.043,37.598,43.457,6.348
1688994306.929,35.645,16.113,34.668,39.062,10.254
1688994306.933,19.043,16.113,29.297,37.598,12.695
1688994306.937,18.555,15.137,34.668,20.508,29.297
1688994306.941,20.996,15.625,38.574,18.066,56.641
1688994306.945,16.602,18.066,34.180,28.809,37.598
1688994306.949,16.113,20.508,36.133,29.785,21.973
1688994306.953,13.672,26.367,34.668,28.809,16.602
1688994306.957,17.090,33.203,32.227,27.344,15.625
1688994306.961,26.367,32.715,33.691,42.969,4.883
1688994306.964,23.438,35.645,35.645,56.152,50.293
1688994306.968,24.414,33.691,37.598,38.574,53.223
1688994306.972,29.297,25.391,39.062,28.809,38.086
1688994306.976,18.066,34.180,37.598,25.391,29.297
1688994306.980,14.160,45.898,42.969,31.250,72.266
1688994306.984,20.996,43.457,50.781,32.715,109.375
1688994306.988,15.137,41.992,49.805,19.043,38.086
1688994306.992,15.625,47.852,42.969,13.672,14.648
1688994306.996,18.066,42.969,38.574,23.438,47.363
1688994307.000,20.996,34.668,39.551,31.738,18.066
1688994307.004,29.785,33.691,42.969,38.086,25.879
1688994307.007,27.832,36.621,41.992,25.879,33.691
1688994307.011,18.555,33.203,40.039,23.438,-26.367
1688994307.015,21.484,28.809,36.133,28.320,33.691
1688994307.019,26.855,25.391,38.086,33.203,89.844
1688994307.023,24.902,22.461,38.086,44.922,50.293
1688994307.027,29.297,22.949,36.621,41.504,48.828
1688994307.031,33.203,19.531,39.551,41.016,90.820
1688994307.035,28.320,17.578,45.410,41.504,103.027
1688994307.039,27.832,11.230,51.270,50.293,62.012
1688994307.043,31.738,12.695,44.434,52.246,13.672
1688994307.047,30.273,19.043,42.969,43.457,-14.160
1688994307.050,28.320,19.043,46.387,38.574,-14.160
1688994307.054,27.344,22.949,46.387,29.785,-6.836
1688994307.058,20.996,26.367,46.875,24.902,-23.438
1688994307.062,25.879,25.391,43.945,24.414,-0.488
1688994307.066,44.434,19.531,44.434,22.461,-6.348
1688994307.070,41.016,17.578,45.410,20.996,-7.812
1688994307.074,17.578,15.625,47.852,19.043,13.672
1688994307.078,15.625,18.555,40.527,14.648,19.531
1688994307.082,24.414,18.066,40.039,23.438,19.043
1688994307.086,33.691,18.066,46.387,33.691,3.418
1688994307.089,37.109,17.578,42.480,27.344,4.395
1688994307.093,37.109,21.973,37.109,28.809,23.926
1688994307.097,33.203,25.391,36.621,39.062,46.875
1688994307.101,34.668,19.531,40.039,44.434,-30.762
1688994307.105,39.551,22.461,41.504,48.340,-16.113
1688994307.109,34.668,25.391,41.016,35.645,54.688
1688994307.113,30.762,17.090,50.293,39.551,95.215
1688994307.117,36.133,10.254,57.617,56.152,89.355
1688994307.121,33.691,20.996,56.152,55.664,16.602
1688994307.125,18.555,40.039,48.828,31.738,35.156
1688994307.129,15.137,41.016,47.852,11.719,106.445
1688994307.132,8.789,25.391,57.617,5.371,59.082
1688994307.136,10.254,15.137,51.270,13.672,15.137
1688994307.140,21.484,18.555,44.434,38.574,59.570
1688994307.144,28.809,19.531,45.410,48.828,71.289
1688994307.148,30.762,17.578,41.016,41.016,10.742
1688994307.152,23.438,16.113,40.039,41.992,62.500
1688994307.156,26.367,14.160,42.969,39.551,97.656
1688994307.160,30.273,13.672,37.598,31.738,11.719
1688994307.164,25.391,7.812,34.668,34.668,43.457
1688994307.168,24.414,6.836,33.691,36.621,-3.418
1688994307.172,29.785,14.648,32.227,32.227,6.836
1688994307.175,31.738,20.508,33.691,35.156,46.387
1688994307.179,30.273,21.973,35.156,44.922,-22.949
1688994307.183,34.180,24.902,31.250,48.340,19.531
1688994307.187,41.016,24.902,31.738,43.945,54.688
1688994307.191,36.133,17.090,37.109,44.434,-5.371
1688994307.195,23.926,14.160,40.039,46.875,32.227
1688994307.199,30.273,20.508,41.504,48.340,18.555
1688994307.203,34.180,28.809,34.668,43.945,11.230
1688994307.207,25.879,31.738,32.227,39.551,113.281
1688994307.211,25.879,36.621,35.156,36.621,70.801
1688994307.214,39.062,41.016,35.645,41.504,18.066
1688994307.218,41.992,43.945,41.016,41.016,45.898
1688994307.222,41.016,41.992,41.992,34.180,33.203
1688994307.226,52.734,37.598,41.504,42.480,24.414
1688994307.230,33.691,37.598,39.062,41.016,-1.465
1688994307.234,25.879,40.039,41.016,33.203,-12.695
1688994307.238,30.762,38.086,46.875,34.180,20.996
1688994307.242,30.762,34.180,48.828,41.992,12.207
1688994307.246,41.016,30.762,51.270,43.457,-4.883
1688994307.250,44.434,31.250,52.734,41.016,-15.625
1688994307.254,35.645,33.691,50.781,37.598,9.766
1688994307.257,32.715,28.809,54.688,45.410,45.898
1688994307.261,41.016,30.273,58.105,46.387,40.039
1688994307.265,41.504,29.785,46.387,38.574,53.223
1688994307.269,30.762,22.949,42.480,24.414,61.523
1688994307.273,22.949,18.066,43.945,20.996,36.621
1688994307.277,23.926,12.695,39.551,27.832,-2.930
1688994307.281,29.785,14.648,42.480,38.086,-3.418
1688994307.285,34.668,18.555,46.387,39.062,56.152
1688994307.289,30.762,20.996,45.898,35.156,29.785
1688994307.293,21.973,26.367,42.969,30.273,-14.648
1688994307.296,14.160,26.367,39.551,29.297,30.273
1688994307.300,20.508,25.391,37.109,42.969,54.199
1688994307.304,29.785,28.320,41.992,40.527,6.348
1688994307.308,26.367,33.203,43.457,31.250,29.785
1688994307.312,24.414,37.598,39.551,17.090,105.469
1688994307.316,24.902,32.715,35.645,16.602,74.707
1688994307.320,29.785,27.832,35.645,25.391,36.621
1688994307.324,28.809,33.691,34.180,28.809,120.605
1688994307.328,23.438,35.645,30.273,21.973,123.047
1688994307.332,22.949,31.250,29.297,8.789,46.387
1688994307.336,13.184,31.250,27.832,16.113,58.594
1688994307.339,14.648,26.367,18.066,20.996,0.977
1688994307.343,20.996,23.926,9.277,17.090,-50.293
1688994307.347,17.090,28.809,14.160,5.859,-6.348
1688994307.351,14.160,36.133,16.113,3.418,33.691
1688994307.355,24.902,31.250,11.719,12.207,71.289
1688994307.359,35.156,27.832,12.207,14.648,15.137
1688994307.363,24.902,29.297,12.207,19.043,46.875
1688994307.367,23.926,33.203,13.672,23.438,95.215
1688994307.371,18.066,31.250,14.648,19.531,27.832
1688994307.375,18.555,23.438,15.137,12.695,-17.578
1688994307.379,22.949,24.414,19.043,11.719,-6.348
1688994307.382,21.973,30.273,25.879,20.020,21.973
1688994307.386,26.855,26.367,31.738,40.527,21.973
1688994307.390,18.555,20.996,39.062,33.203,33.203
1688994307.394,9.766,24.902,35.156,21.973,-10.254
1688994307.398,13.184,27.832,31.250,32.715,21.973
1688994307.402,22.461,28.809,36.621,36.133,42.480
1688994307.406,28.809,30.762,33.691,44.434,21.973
1688994307.410,34.180,32.715,27.832,42.969,5.859
1688994307.414,30.762,30.273,26.855,34.668,-0.977
1688994307.418,35.645,29.785,33.203,38.574,-20.508
1688994307.421,41.992,30.273,32.227,55.664,18.066
1688994307.425,47.363,18.066,28.809,73.242,78.125
1688994307.429,62.500,13.672,40.527,96.191,101.562
1688994307.433,39.062,20.020,39.062,78.613,83.984
1688994307.437,20.508,21.973,27.832,36.133,56.152
1688994307.441,28.809,19.043,27.344,41.016,46.875
1688994307.445,13.672,17.090,25.879,50.293,37.598
1688994307.449,8.301,19.531,23.926,51.270,77.637
1688994307.453,21.973,27.832,27.832,26.367,60.547
1688994307.457,18.066,26.367,31.738,15.137,39.062
1688994307.461,13.184,21.973,37.598,32.715,65.918
1688994307.464,25.391,17.090,37.109,31.738,53.711
1688994307.468,27.344,9.277,30.762,21.484,-0.977
1688994307.472,17.578,9.766,30.762,20.020,-22.461
1688994307.476,17.578,12.695,29.785,28.320,-11.230
1688994307.480,26.855,10.742,23.926,34.180,-42.480
1688994307.484,29.785,10.254,25.391,38.574,-33.691
1688994307.488,22.949,9.766,30.762,47.363,59.570
1688994307.492,18.555,11.230,33.203,45.898,65.430
1688994307.496,24.902,19.043,34.180,34.180,14.160
1688994307.500,34.180,19.043,29.297,42.969,18.555
1688994307.504,43.945,18.066,27.832,55.176,52.734
1688994307.507,48.340,21.973,36.133,58.594,1.465
1688994307.511,34.180,24.414,44.922,59.082,-13.672
1688994307.515,34.668,26.855,42.969,36.133,45.898
1688994307.519,48.340,27.344,40.039,40.527,60.547
1688994307.523,35.645,26.855,42.969,60.547,57.129
1688994307.527,28.809,25.879,43.457,53.223,3.418
1688994307.531,21.973,21.973,44.434,47.363,3.906
1688994307.535,20.508,21.484,45.898,43.457,81.055
1688994307.539,24.414,26.367,52.246,38.574,82.031
1688994307.543,20.508,26.367,56.641,48.340,84.473
1688994307.546,21.973,29.785,55.176,54.199,45.410
1688994307.550,26.855,30.273,55.664,38.574,-44.922
1688994307.554,25.879,24.902,56.641,28.809,-1.953
1688994307.558,20.020,19.531,60.059,48.340,-3.906
1688994307.562,11.230,22.461,62.500,44.434,7.812
1688994307.566,11.719,26.367,53.711,37.598,0.977
1688994307.570,18.555,20.020,44.434,40.039,-19.043
1688994307.574,15.625,15.625,41.504,29.297,-2.441
1688994307.578,23.438,15.137,45.410,36.133,-34.180
1688994307.582,29.785,14.648,49.316,51.758,21.484
1688994307.586,28.320,16.113,46.875,47.852,81.055
1688994307.589,29.785,16.113,38.574,34.180,47.852
1688994307.593,22.461,11.230,31.250,28.809,46.875
1688994307.597,11.719,10.254,29.785,24.414,41.992
1688994307.601,13.672,11.719,26.367,27.832,41.504
1688994307.605,19.043,11.719,23.438,33.203,46.387
1688994307.609,19.531,11.719,19.531,31.250,-10.254
1688994307.613,16.113,8.789,18.066,20.508,13.184
1688994307.617,2.930,12.695,19.043,13.672,24.414
1688994307.621,7.324,14.648,13.184,21.973,-0.488
1688994307.625,14.648,13.184,12.207,23.438,29.297
1688994307.628,16.113,17.578,17.578,24.414,53.223
1688994307.632,19.043,16.602,20.020,24.414,51.758
1688994307.636,6.836,16.602,21.484,25.879,4.395
1688994307.640,17.578,20.996,17.578,31.250,23.438
1688994307.644,20.020,18.555,18.555,31.250,63.965
1688994307.648,3.418,18.066,26.855,28.320,-11.230
1688994307.652,3.418,23.926,25.879,16.113,-45.410
1688994307.656,0.000,20.020,23.926,14.648,1.953
1688994307.660,10.742,18.066,22.949,30.273,69.336
1688994307.664,25.879,21.973,22.949,35.645,99.609
1688994307.668,27.344,21.973,27.344,48.828,39.551
1688994307.671,21.484,18.066,27.832,48.340,-7.324
1688994307.675,24.414,11.719,29.297,44.922,55.176
1688994307.679,64.941,2.930,37.598,76.660,84.961
1688994307.683,86.914,11.230,41.504,109.375,45.898
1688994307.687,54.688,33.203,32.715,82.520,39.551
1688994307.691,26.855,36.133,22.949,33.203,61.523
1688994307.695,23.926,38.574,16.113,33.203,14.160
1688994307.699,9.277,40.527,11.230,28.809,18.066
1688994307.703,7.812,40.039,3.418,7.812,54.688
1688994307.707,14.648,39.062,-10.254,9.766,35.156
1688994307.711,-2.441,29.297,-10.254,-8.301,19.043
1688994307.714,-7.324,25.391,-8.789,-16.113,8.301
1688994307.718,9.766,29.297,-12.207,-0.488,33.203
1688994307.722,15.137,28.320,-11.719,-9.277,83.984
1688994307.726,9.277,30.762,-4.395,-8.301,61.035
1688994307.730,0.000,32.715,-2.441,-20.996,16.113
1688994307.734,4.395,29.785,-7.812,-21.973,30.762
1688994307.738,18.555,30.273,-5.859,2.441,41.016
1688994307.742,30.762,29.297,3.906,18.066,90.332
1688994307.746,30.762,30.273,15.137,28.320,87.891
1688994307.750,30.273,29.785,19.531,33.691,54.688
1688994307.753,31.250,22.461,17.578,23.926,40.527
1688994307.757,23.926,21.973,20.996,18.555,79.590
1688994307.761,30.762,25.879,22.949,35.645,50.781
1688994307.765,38.086,26.855,25.879,47.363,-34.180
1688994307.769,37.109,35.156,30.273,51.270,-13.672
1688994307.773,51.758,37.109,33.691,52.246,0.488
1688994307.777,57.617,32.715,26.855,50.781,3.906
1688994307.781,56.641,28.809,21.484,53.223,80.078
1688994307.785,59.570,30.273,25.879,56.641,4.883
1688994307.789,49.316,32.715,28.320,59.082,-44.434
1688994307.793,42.969,28.320,25.391,48.340,-31.250
1688994307.796,36.621,28.809,20.996,37.598,2.441
1688994307.800,43.457,24.902,20.996,43.457,63.477
1688994307.804,54.199,17.090,22.949,48.828,43.457
1688994307.808,47.363,18.066,21.484,44.434,19.531
1688994307.812,42.480,27.832,22.461,40.527,62.988
1688994307.816,45.410,35.645,20.508,37.109,80.566
1688994307.820,56.152,38.574,16.113,46.387,34.180
1688994307.824,59.082,40.527,19.531,55.664,69.336
1688994307.828,60.059,40.527,20.996,57.129,75.195
1688994307.832,51.758,41.504,20.020,43.945,43.945
1688994307.836,47.363,37.109,16.602,38.086,68.848
1688994307.839,61.523,37.598,21.973,41.016,47.852
1688994307.843,57.617,47.852,28.809,47.363,19.043
1688994307.847,46.875,51.758,29.785,43.457,17.578
1688994307.851,43.945,54.199,33.691,49.805,24.902
1688994307.855,45.898,55.176,34.668,55.664,-2.930
1688994307.859,45.410,55.664,32.715,49.316,-36.133
1688994307.863,41.504,60.059,31.738,54.688,-2.441
1688994307.867,52.246,63.965,32.715,60.059,38.086
1688994307.871,43.945,67.383,29.785,49.805,19.043
1688994307.875,40.527,66.406,19.043,37.598,-5.371
1688994307.878,69.336,72.754,11.719,55.664,1.953
1688994307.882,64.941,71.289,26.855,62.012,23.926
1688994307.886,25.391,46.875,44.922,45.898,50.293
1688994307.890,20.996,33.203,49.805,42.480,69.336
1688994307.894,40.527,30.273,47.852,46.387,106.445
1688994307.898,26.367,29.785,41.992,46.875,87.402
1688994307.902,8.789,26.855,43.945,48.828,-3.418
1688994307.906,12.207,25.391,49.805,44.922,-1.953
1688994307.910,5.371,32.715,47.852,36.621,57.129
1688994307.914,3.418,32.227,42.480,36.621,69.824
1688994307.918,8.789,31.738,43.457,41.016,14.648
1688994307.921,19.531,27.832,42.969,38.574,-31.250
1688994307.925,28.320,30.273,36.621,46.875,20.508
1688994307.929,16.113,37.598,41.992,43.457,65.918
1688994307.933,5.859,31.250,43.457,39.551,17.578
1688994307.937,14.648,29.297,39.551,37.109,48.340
1688994307.941,23.926,24.902,40.039,37.109,80.566
1688994307.945,30.762,19.043,32.715,48.340,24.902
1688994307.949,25.391,23.926,31.250,40.527,29.297
1688994307.953,22.949,26.367,39.062,36.621,31.250
1688994307.957,15.625,25.879,39.062,42.480,28.809
1688994307.960,20.020,27.344,36.621,52.246,44.922
1688994307.964,33.203,29.297,38.086,58.594,34.668
1688994307.968,41.016,34.668,40.527,63.477,67.871
1688994307.972,43.457,41.016,40.527,67.383,105.957
1688994307.976,34.668,37.109,37.598,61.035,65.918
1688994307.980,42.480,33.691,30.762,62.500,26.855
1688994307.984,54.199,41.016,21.973,68.848,43.945
1688994307.988,51.758,42.480,16.602,57.617,46.875
1688994307.992,46.387,41.504,18.555,47.852,-8.789
1688994307.996,45.410,39.551,17.090,55.664,3.418
1688994308.000,58.105,44.922,18.066,53.711,25.391
1688994308.003,56.152,46.387,24.414,49.805,-19.531
1688994308.007,39.062,37.598,23.926,41.504,-34.668
1688994308.011,30.273,36.133,24.414,35.156,18.066
1688994308.015,38.086,37.109,28.809,31.738,29.297
1688994308.019,47.363,41.016,33.203,28.320,-22.949
1688994308.023,33.691,42.969,33.691,24.414,-36.133
1688994308.027,18.066,43.945,25.391,21.973,-4.883
1688994308.031,17.578,45.410,26.855,28.320,27.344
1688994308.035,24.414,46.387,36.133,21.484,48.340
1688994308.039,28.320,43.945,39.062,19.531,-11.230
1688994308.043,16.113,42.480,41.992,39.062,-6.348
1688994308.046,14.160,37.598,43.945,35.645,7.324
1688994308.050,13.184,37.109,48.828,25.879,-38.574
1688994308.054,9.277,42.480,49.316,20.020,-20.996
1688994308.058,18.066,37.109,39.062,24.414,19.043
1688994308.062,25.879,31.738,36.621,44.434,31.250
1688994308.066,31.250,33.203,41.016,50.781,16.602
1688994308.070,25.391,29.297,43.945,42.969,41.992
1688994308.074,19.043,22.461,41.504,34.668,43.457
1688994308.078,16.602,20.508,41.504,38.086,86.426
1688994308.082,18.066,20.996,42.480,50.781,117.676
1688994308.085,27.832,22.949,41.016,41.504,72.754
1688994308.089,13.672,22.949,42.969,29.297,66.406
1688994308.093,8.789,12.695,43.945,24.902,94.727
1688994308.097,12.695,10.254,37.109,21.973,132.812
1688994308.101,16.602,12.695,30.273,26.855,88.867
1688994308.105,20.996,9.766,29.785,25.879,-2.441
1688994308.109,19.043,10.742,27.832,20.020,42.969
1688994308.113,17.090,7.812,29.785,19.531,31.738
1688994308.117,15.137,4.395,33.691,30.762,-6.836
1688994308.121,14.160,6.348,33.691,31.250,3.418
1688994308.125,2.930,11.719,30.762,24.902,21.973
1688994308.128,4.883,18.555,29.297,19.531,31.250
1688994308.132,2.930,17.090,28.320,12.695,54.688
1688994308.136,6.348,17.578,28.320,25.391,62.988
1688994308.140,19.531,28.809,24.902,31.738,84.961
1688994308.144,23.438,37.598,21.973,29.785,105.469
1688994308.148,22.461,42.969,21.484,36.133,49.805
1688994308.152,18.555,47.852,22.461,28.809,79.590
1688994308.156,26.855,53.711,18.555,31.738,46.875
1688994308.160,40.527,51.758,11.719,45.898,-76.660
1688994308.164,36.621,45.410,16.113,48.340,-19.531
1688994308.168,38.086,44.922,23.438,45.410,56.152
1688994308.171,42.480,46.875,22.949,39.551,27.832
1688994308.175,34.668,42.480,19.531,30.273,-24.414
1688994308.179,49.316,39.551,21.973,40.527,-0.488
1688994308.183,53.711,39.551,24.414,51.270,55.176
1688994308.187,41.992,40.039,20.508,44.434,62.988
1688994308.191,43.945,39.551,23.438,39.551,68.848
1688994308.195,48.828,38.574,29.297,40.527,41.992
1688994308.199,56.152,34.180,33.203,48.828,59.570
1688994308.203,51.270,27.832,38.574,47.363,63.477
1688994308.207,41.016,27.832,39.551,41.016,35.645
1688994308.210,41.016,31.738,33.203,37.109,87.891
1688994308.214,34.180,33.203,28.320,35.645,75.195
1688994308.218,20.996,34.180,33.203,37.109,57.617
1688994308.222,18.066,30.273,38.574,40.527,50.293
1688994308.226,9.277,32.227,37.109,40.039,40.527
1688994308.230,12.695,39.551,30.273,32.227,46.387
1688994308.234,18.555,35.156,26.855,34.180,-25.391
1688994308.238,11.230,27.832,26.855,41.992,-33.691
1688994308.242,15.625,29.297,30.762,41.016,52.734
1688994308.246,29.297,37.598,30.762,48.828,36.621
1688994308.250,22.461,38.086,28.809,43.945,38.574
1688994308.253,16.602,34.668,32.715,46.387,40.039
1688994308.257,23.438,31.250,35.645,58.594,22.461
1688994308.261,26.367,27.344,33.691,45.410,49.805
1688994308.265,36.621,30.273,31.250,43.945,-2.441
1688994308.269,38.574,35.156,29.297,42.969,40.527
1688994308.273,23.926,35.645,32.227,41.504,54.688
1688994308.277,22.949,33.691,31.738,46.387,-0.488
1688994308.281,27.344,33.203,28.809,43.457,0.000
1688994308.285,33.691,30.762,32.715,47.852,-12.207
1688994308.289,19.043,26.367,32.227,43.457,-2.441
1688994308.292,7.812,23.438,26.367,31.250,-26.367
1688994308.296,18.555,25.879,22.461,20.020,-7.324
1688994308.300,11.230,29.297,24.414,23.438,72.754
1688994308.304,2.930,27.344,28.320,34.180,64.941
1688994308.308,5.371,30.273,23.438,29.785,-3.418
1688994308.312,-1.953,36.133,19.531,15.137,4.883
1688994308.316,1.953,32.715,23.926,21.484,44.434
1688994308.320,7.324,25.879,25.391,41.016,27.832
1688994308.324,11.719,25.391,24.414,49.316,30.762
1688994308.328,20.996,27.344,23.438,48.828,68.848
1688994308.332,19.043,21.484,30.273,37.598,39.551
1688994308.335,25.879,15.137,36.133,45.410,49.316
1688994308.339,37.109,14.648,32.715,54.199,56.152
1688994308.343,39.062,11.230,31.738,51.270,8.301
1688994308.347,40.039,5.859,30.762,45.410,-34.668
1688994308.351,36.133,10.254,32.715,40.039,-25.391
1688994308.355,25.391,18.555,33.691,44.922,85.449
1688994308.359,15.625,19.531,30.273,38.086,57.617
1688994308.363,20.508,14.648,29.785,37.109,-2.930
1688994308.367,19.531,12.695,31.738,39.062,8.301
1688994308.371,13.672,9.277,35.156,29.785,16.602
1688994308.375,10.254,4.395,36.133,18.066,-9.277
1688994308.378,14.648,5.371,38.574,25.391,-20.020
1688994308.382,25.391,11.230,41.992,38.086,-9.277
1688994308.386,18.066,23.926,44.922,31.738,8.789
1688994308.390,13.672,24.414,43.945,21.973,32.227
1688994308.394,20.508,21.973,42.969,23.926,31.738
1688994308.398,18.066,21.484,49.805,33.691,29.785
1688994308.402,22.949,25.391,50.781,47.363,104.004
1688994308.406,35.156,31.250,48.340,48.828,117.676
1688994308.410,30.762,31.250,52.734,42.969,4.395
1688994308.414,24.414,33.203,53.223,43.457,-18.555
1688994308.417,38.574,29.785,48.340,44.922,67.871
1688994308.421,49.316,31.250,50.293,52.246,47.363
1688994308.425,48.340,32.227,50.781,52.246,46.875
1688994308.429,49.805,29.785,44.434,42.969,58.594
1688994308.433,43.457,29.297,40.527,44.922,28.320
1688994308.437,36.621,20.996,43.945,48.828,39.062
1688994308.441,41.992,19.531,48.828,57.617,-14.160
1688994308.445,43.945,23.926,49.316,55.176,17.578
1688994308.449,30.762,19.531,47.363,51.270,64.453
1688994308.453,27.832,10.254,45.898,43.945,26.855
1688994308.457,30.762,12.207,49.316,36.621,39.062
1688994308.460,25.391,22.949,51.270,45.410,30.762
1688994308.464,22.949,23.438,51.270,45.898,48.828
1688994308.468,18.555,9.277,53.711,39.551,69.824
1688994308.472,19.043,16.602,55.664,44.922,64.453
1688994308.476,12.207,33.691,47.852,40.527,53.711
1688994308.480,7.812,30.273,43.945,24.902,65.430
1688994308.484,1.953,28.809,45.410,21.484,65.918
1688994308.488,8.789,24.902,43.945,20.508,43.457
1688994308.492,7.324,26.367,46.875,16.113,5.371
1688994308.496,-4.395,34.180,46.875,13.672,-38.574
1688994308.500,11.230,31.250,44.922,25.391,38.574
1688994308.503,25.391,25.391,41.992,29.785,96.191
1688994308.507,13.672,21.973,45.410,19.043,40.039
1688994308.511,10.254,20.508,43.457,16.602,-3.906
1688994308.515,17.090,22.461,34.180,18.066,56.641
1688994308.519,20.996,26.367,32.715,23.438,46.387
1688994308.523,32.715,22.949,39.062,32.715,59.082
1688994308.527,33.691,17.578,38.574,39.062,74.219
1688994308.531,32.715,19.043,33.691,41.016,40.527
1688994308.535,33.691,21.484,38.086,39.551,57.617
1688994308.539,32.227,22.949,40.527,45.410,20.996
1688994308.542,35.156,21.973,36.621,53.711,22.461
1688994308.546,22.461,24.902,39.551,53.223,84.961
1688994308.550,9.277,33.203,39.551,43.457,62.012
1688994308.554,19.531,41.016,36.133,32.715,0.488
1688994308.558,24.414,46.387,41.992,41.992,6.348
1688994308.562,28.320,54.688,46.387,53.223,51.758
1688994308.566,39.062,50.293,42.480,49.805,71.777
1688994308.570,38.574,38.574,40.527,44.434,53.711
1688994308.574,32.227,38.086,43.457,39.062,14.648
1688994308.578,36.133,33.203,44.922,47.363,-5.371
1688994308.582,38.574,27.832,40.527,49.805,10.742
1688994308.585,29.297,30.273,39.062,41.504,32.227
1688994308.589,23.926,27.344,44.434,44.434,39.551
1688994308.593,25.391,26.855,47.363,31.250,44.922
1688994308.597,17.578,26.855,47.852,27.344,41.016
1688994308.601,14.648,25.391,47.852,40.527,7.324
1688994308.605,21.484,27.344,41.992,43.945,10.742
1688994308.609,20.996,35.156,40.039,44.434,76.172
1688994308.613,26.367,43.457,41.992,46.387,60.547
1688994308.617,37.598,38.574,41.016,49.805,3.418
1688994308.621,36.133,28.320,27.832,51.270,43.457
1688994308.624,40.039,25.391,24.414,51.270,17.578
1688994308.628,34.668,26.855,27.832,44.434,12.207
1688994308.632,25.391,25.391,27.832,35.156,47.363
1688994308.636,20.508,26.855,27.344,35.156,45.898
1688994308.640,19.531,29.297,26.855,36.133,82.031
1688994308.644,26.855,26.367,24.414,39.551,70.312
1688994308.648,19.531,28.320,20.508,41.504,24.414
1688994308.652,12.207,25.879,22.461,27.344,8.789
1688994308.656,13.184,21.973,20.020,27.344,15.137
1688994308.660,20.508,28.320,18.555,35.645,-31.738
1688994308.664,25.879,34.668,18.555,25.879,33.691
1688994308.667,20.508,32.715,11.230,17.090,76.172
1688994308.671,14.160,32.227,8.789,12.207,31.250
1688994308.675,9.766,35.156,8.789,18.555,35.645
1688994308.679,10.254,36.621,9.766,26.367,45.898
1688994308.683,25.391,38.574,16.113,33.691,56.641
1688994308.687,21.484,38.086,18.555,40.527,58.105
1688994308.691,16.602,33.203,16.113,32.715,69.336
1688994308.695,32.227,34.668,21.484,30.273,19.043
1688994308.699,37.109,41.504,20.020,38.574,-16.113
1688994308.703,35.156,40.039,18.066,46.875,-9.277
1688994308.707,32.227,36.621,26.855,54.688,-17.090
1688994308.710,36.133,32.227,31.250,54.688,35.645
1688994308.714,41.016,30.762,30.273,48.828,30.762
1688994308.718,37.109,33.203,35.156,60.059,8.789
1688994308.722,48.828,32.715,38.086,60.547,22.461
1688994308.726,47.363,30.762,42.969,59.570,47.852
1688994308.730,38.574,22.949,41.504,63.965,24.414
1688994308.734,62.988,23.926,42.969,69.824,-21.973
1688994308.738,38.574,38.574,37.109,42.480,-11.719
1688994308.742,11.230,52.734,23.926,3.418,-28.320
1688994308.746,30.273,48.340,43.457,27.832,-19.043
1688994308.749,41.992,41.016,53.711,41.016,12.695
1688994308.753,11.719,25.879,38.086,18.066,49.805
1688994308.757,-14.648,13.672,33.691,8.789,56.641
1688994308.761,-2.441,23.926,35.156,9.277,34.180
1688994308.765,0.000,27.344,24.414,-1.953,4.883
1688994308.769,9.766,32.715,31.250,10.742,32.715
1688994308.773,-2.441,29.297,37.109,1.953,43.457
1688994308.777,-15.137,27.832,33.691,-26.367,4.395
1688994308.781,-14.160,32.227,32.715,-6.836,61.035
1688994308.785,-18.066,38.086,43.457,0.977,75.684
1688994308.789,-19.043,43.457,39.551,-25.879,-19.531
1688994308.792,-27.344,46.387,21.484,-26.855,-50.781
1688994308.796,-4.883,54.688,24.902,-2.930,-34.668
1688994308.800,6.836,51.758,33.691,1.953,-14.648
1688994308.804,10.742,52.246,35.645,3.906,12.695
1688994308.808,13.184,56.152,32.227,20.508,20.020
1688994308.812,5.371,64.453,31.250,17.090,1.465
1688994308.816,5.859,69.824,30.762,-0.488,41.016
1688994308.820,12.207,62.500,25.391,-0.977,5.371
1688994308.824,4.883,62.012,28.320,10.254,5.371
1688994308.828,0.977,62.988,29.785,17.578,106.934
1688994308.832,23.438,61.035,23.926,32.715,51.758
1688994308.835,27.344,68.848,26.367,36.621,22.949
1688994308.839,4.883,74.219,38.574,12.695,26.367
1688994308.843,16.113,72.754,47.852,21.973,36.621
1688994308.847,13.184,71.777,35.156,12.207,58.105
1688994308.851,-3.906,62.988,27.344,1.953,132.812
1688994308.855,-5.371,58.105,28.809,5.371,116.211
1688994308.859,-23.438,61.523,23.926,-7.812,41.992
1688994308.863,5.371,61.523,12.695,16.602,70.801
1688994308.867,20.020,65.918,6.836,22.949,83.008
1688994308.871,9.766,50.293,8.789,10.742,44.434
1688994308.874,27.832,25.879,7.812,24.414,65.430
1688994308.878,29.785,24.902,7.324,17.578,46.387
1688994308.882,39.551,24.902,7.812,29.785,-2.930
1688994308.886,34.180,17.578,13.184,43.457,-0.488
1688994308.890,26.367,20.508,13.672,30.273,6.348
1688994308.894,22.949,23.438,18.066,8.301,41.504
1688994308.898,25.879,19.043,20.508,5.859,75.684
1688994308.902,43.457,17.578,20.020,15.625,80.078
1688994308.906,32.227,13.672,26.367,20.020,-28.320
1688994308.910,31.738,12.207,29.785,10.742,-85.938
1688994308.914,42.480,13.672,29.785,9.766,-39.551
1688994308.917,51.270,8.301,30.762,23.438,-27.344
1688994308.921,37.598,7.324,31.250,7.812,-22.461
1688994308.925,36.133,8.301,24.414,17.578,2.441
1688994308.929,43.945,6.836,29.785,42.480,21.484
1688994308.933,36.621,6.836,38.574,41.504,36.621
1688994308.937,30.762,2.441,38.086,42.969,61.523
1688994308.941,31.738,0.488,37.598,49.805,41.504
1688994308.945,31.250,1.953,38.086,53.223,-3.418
1688994308.949,31.738,1.465,36.133,54.199,8.789
1688994308.953,32.227,0.000,31.250,37.598,26.855
1688994308.957,32.715,-0.977,27.832,33.691,13.184
1688994308.960,44.922,0.488,33.203,45.410,38.086
1688994308.964,44.434,0.488,36.621,50.781,66.895
1688994308.968,30.273,-2.930,35.645,37.598,41.504
1688994308.972,33.691,-3.906,34.668,34.668,60.547
1688994308.976,48.828,-0.977,30.762,56.152,42.480
1688994308.980,45.410,1.465,25.879,54.199,22.461
1688994308.984,39.551,6.348,23.926,50.293,46.875
1688994308.988,48.828,7.812,22.461,58.105,81.543
1688994308.992,52.246,4.883,24.414,52.734,19.043
1688994308.996,51.270,3.418,26.367,51.758,-40.039
1688994308.999,50.293,10.254,22.949,60.059,-8.301
1688994309.003,39.062,4.883,23.438,49.805,8.301
1688994309.007,36.133,3.906,20.508,44.434,44.922
1688994309.011,41.016,11.719,16.113,50.293,7.324
1688994309.015,37.598,9.277,19.043,47.852,4.395
1688994309.019,40.039,8.789,20.996,56.152,44.434
1688994309.023,47.852,10.742,23.438,62.500,29.785
1688994309.027,41.016,8.789,27.344,48.340,-4.883
1688994309.031,35.156,8.301,27.832,45.898,13.672
1688994309.035,36.133,10.254,27.832,39.551,-1.953
1688994309.039,38.574,12.695,33.203,41.504,-38.574
1688994309.042,35.645,13.672,33.203,47.363,22.461
1688994309.046,30.273,9.766,33.691,37.598,80.078
1688994309.050,20.996,6.348,36.621,29.785,45.410
1688994309.054,31.738,13.184,40.527,37.598,12.695
1688994309.058,44.434,21.973,44.434,54.199,21.973
1688994309.062,45.410,21.973,41.016,62.012,-7.812
1688994309.066,41.504,21.484,38.574,59.082,-19.043
1688994309.070,42.969,17.578,39.062,48.340,3.418
1688994309.074,45.898,15.625,40.039,49.316,52.246
1688994309.078,48.828,12.695,40.039,52.734,69.336
1688994309.081,54.199,15.625,40.527,52.734,11.719
1688994309.085,46.875,20.508,40.039,55.176,35.645
1688994309.089,48.828,17.578,41.992,49.316,33.203
1688994309.093,55.664,21.484,43.945,45.898,45.898
1688994309.097,58.594,16.113,39.551,56.641,14.160
1688994309.101,56.641,7.812,35.645,66.406,-10.254
1688994309.105,49.316,8.789,32.715,66.406,-18.066
1688994309.109,44.922,11.719,30.273,49.805,-22.949
1688994309.113,43.945,13.184,32.227,34.180,20.020
1688994309.117,39.551,10.254,36.133,38.574,38.574
1688994309.121,30.273,7.324,35.156,41.504,32.227
1688994309.124,27.344,9.766,37.598,42.480,-2.441
1688994309.128,36.621,13.672,34.668,37.598,-15.625
1688994309.132,31.250,12.207,29.785,23.926,28.809
1688994309.136,29.297,15.625,27.832,23.438,81.543
1688994309.140,33.203,20.508,28.809,27.832,52.246
1688994309.144,37.598,16.113,33.203,32.715,79.102
1688994309.148,42.480,15.137,33.203,40.039,28.320
1688994309.152,46.387,21.484,26.855,40.039,-10.254
1688994309.156,48.828,16.113,27.832,42.480,53.223
1688994309.160,51.270,14.160,31.738,52.246,19.531
1688994309.164,47.852,23.926,28.320,53.223,30.273
1688994309.167,37.109,17.578,20.020,46.387,84.473
1688994309.171,33.691,7.812,17.090,36.621,72.754
1688994309.175,36.621,12.695,27.832,42.480,34.180
1688994309.179,39.551,15.137,30.762,52.246,-16.602
1688994309.183,45.898,20.508,31.738,53.711,-55.664
1688994309.187,37.598,28.809,33.203,41.504,-35.645
1688994309.191,33.203,28.320,27.832,30.762,36.621
1688994309.195,43.945,27.344,25.391,41.016,29.297
1688994309.199,43.945,24.414,28.809,52.246,53.223
1688994309.203,46.387,22.949,30.273,43.457,94.238
1688994309.206,48.340,23.926,26.855,32.227,82.031
1688994309.210,36.621,20.996,35.156,32.715,83.008
1688994309.214,25.391,19.531,35.156,33.203,45.898
1688994309.218,35.156,20.508,32.227,35.156,87.402
1688994309.222,41.992,20.996,36.621,37.109,81.543
1688994309.226,28.320,22.461,35.645,30.273,18.066
1688994309.230,22.461,20.996,31.738,21.484,43.457
1688994309.234,23.438,16.602,24.414,20.020,40.527
1688994309.238,19.531,19.043,21.484,26.855,20.020
1688994309.242,22.949,30.762,25.391,35.156,62.988
1688994309.246,37.109,32.227,30.762,36.621,21.484
1688994309.249,41.992,34.668,30.273,26.367,35.156
1688994309.253,46.387,38.574,23.926,32.227,103.516
1688994309.257,54.199,40.039,23.438,47.852,43.457
1688994309.261,51.270,42.480,22.949,48.340,45.410
1688994309.265,35.645,42.480,21.973,31.738,62.012
1688994309.269,28.809,41.504,25.391,23.438,36.133
1688994309.273,40.527,38.086,29.785,30.762,95.703
1688994309.277,44.434,33.203,29.297,33.691,90.332
1688994309.281,48.340,33.203,25.391,38.086,20.996
1688994309.285,49.316,38.574,24.414,41.016,-35.645
1688994309.289,37.598,34.180,17.090,38.574,-9.766
1688994309.292,43.945,29.785,19.531,41.016,45.410
1688994309.296,44.922,34.180,24.414,43.945,-25.391
1688994309.300,36.133,34.180,23.926,44.434,1.465
1688994309.304,39.551,31.250,23.926,58.594,29.297
1688994309.308,29.785,30.762,22.949,42.969,22.949
1688994309.312,18.066,24.902,19.043,19.531,65.918
1688994309.316,20.996,24.902,21.484,31.738,24.902
1688994309.320,25.879,28.809,28.320,51.270,23.926
1688994309.324,27.832,24.902,30.273,40.039,21.973
1688994309.328,26.855,32.227,30.273,29.297,23.438
1688994309.331,26.367,38.086,25.391,21.973,44.922
1688994309.335,30.273,36.133,27.344,24.902,51.758
1688994309.339,36.621,40.527,30.273,43.945,43.457
1688994309.343,33.203,43.457,24.902,45.898,-1.465
1688994309.347,31.738,39.062,25.391,33.203,39.062
1688994309.351,35.645,36.133,19.043,29.297,52.734
1688994309.355,40.039,31.738,3.906,33.203,76.660
1688994309.359,64.941,30.762,-10.254,59.570,36.133
1688994309.363,92.773,29.785,-8.789,105.469,-7.812
1688994309.367,69.824,10.742,20.508,89.844,9.766
1688994309.371,20.996,0.488,28.320,52.246,-32.227
1688994309.374,1.953,4.395,27.344,33.203,-6.348
1688994309.378,16.113,7.324,17.090,50.293,49.316
1688994309.382,11.719,10.254,14.160,55.176,41.992
1688994309.386,-2.441,5.859,22.461,30.762,55.176
1688994309.390,4.883,11.719,23.438,44.434,48.828
1688994309.394,-24.902,17.090,32.227,29.785,45.898
1688994309.398,-17.090,19.043,20.996,19.531,18.555
1688994309.402,0.488,21.484,22.461,31.738,5.371
1688994309.406,-22.949,20.508,26.855,11.719,79.102
1688994309.410,-10.254,19.531,24.414,19.531,47.852
1688994309.413,4.395,23.438,32.227,43.945,43.945
1688994309.417,7.812,33.203,22.949,32.227,32.227
1688994309.421,12.207,42.480,17.090,23.438,17.578
1688994309.425,17.578,33.691,21.973,31.250,49.805
1688994309.429,32.227,26.855,19.531,25.879,79.102
1688994309.433,38.086,39.062,18.066,25.391,113.281
1688994309.437,36.133,40.527,21.484,40.039,13.672
1688994309.441,32.715,36.133,21.973,41.992,-6.836
1688994309.445,32.227,30.762,21.973,34.668,8.789
1688994309.449,26.367,26.855,24.414,27.832,17.090
1688994309.453,23.438,25.391,22.949,31.250,44.434
1688994309.456,26.855,18.555,20.020,49.316,28.809
1688994309.460,25.879,16.602,20.020,61.523,2.441
1688994309.464,24.414,20.508,19.531,57.129,31.738
1688994309.468,16.113,24.902,23.438,51.270,46.387
1688994309.472,15.625,23.438,31.738,46.387,-13.184
1688994309.476,20.020,25.391,39.551,59.082,9.766
1688994309.480,15.137,29.785,42.480,69.336,35.156
1688994309.484,19.043,28.809,48.340,61.523,80.566
1688994309.488,22.461,28.809,52.734,64.453,67.871
1688994309.492,17.578,32.227,47.363,48.828,-2.930
1688994309.496,16.602,39.551,42.969,36.621,27.832
1688994309.499,19.043,38.086,41.504,45.410,83.496
1688994309.503,26.367,41.016,38.086,41.504,30.762
1688994309.507,28.809,48.828,35.156,26.367,1.465
1688994309.511,30.273,57.129,35.156,28.320,51.758
1688994309.515,25.879,61.035,36.621,35.156,38.086
1688994309.519,23.926,54.199,35.645,24.902,17.578
1688994309.523,24.902,57.617,32.227,26.855,17.578
1688994309.527,22.949,58.594,29.297,18.555,23.438
1688994309.531,29.297,50.293,30.762,15.137,17.090
1688994309.535,30.762,43.457,29.297,33.203,13.184
1688994309.538,25.879,40.039,28.320,46.387,26.855
1688994309.542,31.250,37.109,30.762,51.758,7.324
1688994309.546,41.016,36.621,33.203,45.410,29.297
1688994309.550,38.086,38.574,34.180,44.922,50.781
1688994309.554,30.762,40.039,38.574,49.316,42.480
1688994309.558,30.273,37.109,35.156,55.176,17.090
1688994309.562,37.598,27.832,24.414,58.105,26.367
1688994309.566,22.461,21.484,26.855,50.293,70.801
1688994309.570,11.230,28.320,31.250,45.410,98.633
1688994309.574,18.555,35.156,27.832,48.828,84.961
1688994309.578,23.438,34.668,27.832,53.711,60.547
1688994309.581,30.273,34.180,26.367,49.316,35.156
1688994309.585,27.832,39.551,28.809,42.480,9.277
1688994309.589,21.973,44.434,28.809,27.832,-5.371
1688994309.593,33.203,41.992,23.438,22.949,-24.902
1688994309.597,40.039,44.434,26.367,30.273,27.344
1688994309.601,37.598,47.852,32.715,35.645,52.246
1688994309.605,37.598,38.086,33.691,27.832,17.578
1688994309.609,38.086,40.039,34.668,21.484,12.207
1688994309.613,37.109,45.410,34.668,21.973,10.742
1688994309.617,36.133,41.504,29.297,34.668,23.926
1688994309.621,41.992,36.133,34.668,53.223,46.387
1688994309.624,37.109,31.738,41.016,43.457,59.570
1688994309.628,32.715,31.250,38.086,19.043,23.926
1688994309.632,35.156,31.738,37.598,32.227,20.996
1688994309.636,35.156,31.250,32.227,41.016,83.984
1688994309.640,38.574,33.203,28.809,21.484,47.852
1688994309.644,26.855,39.551,27.344,19.531,22.461
1688994309.648,9.766,41.504,31.738,18.066,55.664
1688994309.652,4.883,36.621,36.133,13.672,18.555
1688994309.656,5.859,31.250,31.250,25.879,5.371
1688994309.660,-6.836,35.645,29.785,23.926,61.035
1688994309.663,-4.395,36.133,28.809,13.184,58.105
1688994309.667,5.371,31.250,28.809,10.742,-3.418
1688994309.671,2.441,31.250,33.691,3.418,36.133
1688994309.675,8.301,35.645,28.809,9.766,24.902
1688994309.679,-1.953,32.715,26.367,21.484,43.945
1688994309.683,-7.812,31.250,28.809,15.625,95.703
1688994309.687,1.953,31.250,36.621,19.043,72.266
1688994309.691,32.715,14.160,47.852,62.988,10.254
1688994309.695,62.500,16.602,45.898,85.938,16.602
1688994309.699,51.758,30.762,33.691,62.012,36.133
1688994309.703,39.551,29.785,29.297,37.109,34.180
1688994309.706,47.363,37.109,29.297,32.715,57.617
1688994309.710,39.062,30.762,26.367,33.203,61.523
1688994309.714,33.203,24.414,18.555,60.059,69.824
1688994309.718,53.223,35.156,17.578,72.266,56.641
1688994309.722,68.848,41.504,15.625,47.852,25.391
1688994309.726,57.617,39.062,14.160,30.273,16.602
1688994309.730,44.922,37.598,13.184,21.484,19.043
1688994309.734,40.527,33.691,13.184,21.484,20.508
1688994309.738,45.410,31.738,16.602,23.926,42.480
1688994309.742,48.828,33.691,16.113,28.809,62.988
1688994309.745,32.227,26.367,17.578,35.156,61.035
1688994309.749,23.438,16.602,19.531,23.926,46.387
1688994309.753,27.832,2.441,16.113,14.648,27.344
1688994309.757,24.414,-0.488,13.672,25.879,-9.766
1688994309.761,24.414,13.672,9.277,22.461,50.781
1688994309.765,20.996,10.254,6.348,19.043,114.746
1688994309.769,23.438,5.371,3.906,16.113,-1.953
1688994309.773,30.762,12.207,-0.488,6.348,-28.809
1688994309.777,29.785,20.508,0.488,6.348,23.926
1688994309.781,20.020,24.414,1.953,9.766,3.906
1688994309.785,20.020,22.949,4.395,29.297,-13.184
1688994309.788,19.043,20.020,7.324,27.832,-61.523
1688994309.792,21.973,21.484,7.812,16.602,-27.344
1688994309.796,38.574,22.949,10.254,34.668,74.219
1688994309.800,37.598,18.066,9.766,47.363,75.684
1688994309.804,34.668,16.113,7.324,41.016,47.363
1688994309.808,34.180,11.719,9.277,32.715,49.316
1688994309.812,33.691,15.625,14.648,33.691,33.691
1688994309.816,32.715,21.484,23.438,43.945,22.461
1688994309.820,41.992,19.043,28.809,55.664,73.242
1688994309.824,41.504,20.020,28.320,51.758,71.777
1688994309.828,26.855,20.996,31.738,38.086,38.086
1688994309.831,30.762,25.391,36.133,41.992,31.738
1688994309.835,42.480,26.855,35.156,55.664,8.789
1688994309.839,44.922,22.949,34.180,61.035,26.855
1688994309.843,36.621,25.391,34.668,60.547,-7.324
1688994309.847,35.156,19.531,37.598,50.781,16.113
1688994309.851,33.691,16.113,41.016,45.410,31.250
1688994309.855,35.156,18.066,40.527,54.199,27.832
1688994309.859,45.410,17.090,41.016,64.941,45.410
1688994309.863,48.828,17.090,41.992,68.848,68.848
1688994309.867,49.805,21.484,39.062,58.594,104.492
1688994309.870,57.129,18.555,39.062,54.199,92.773
1688994309.874,56.152,16.602,32.227,60.547,13.672
1688994309.878,62.012,20.508,30.762,68.848,19.531
1688994309.882,74.219,20.508,39.551,69.336,57.129
1688994309.886,65.430,23.926,37.598,51.270,26.367
1688994309.890,53.223,21.484,34.668,42.969,69.336
1688994309.894,53.223,18.555,36.133,53.711,95.703
1688994309.898,54.199,25.879,36.133,44.434,2.930
1688994309.902,40.527,24.902,37.109,35.645,-12.695
1688994309.906,35.156,23.926,40.527,42.969,18.066
1688994309.910,35.156,24.414,40.527,36.621,24.902
1688994309.913,27.344,22.949,37.109,35.645,38.574
1688994309.917,26.855,17.578,34.180,48.340,36.133
1688994309.921,13.672,13.184,30.762,40.039,48.828
1688994309.925,13.672,16.113,26.855,17.578,25.879
1688994309.929,14.648,22.461,26.855,17.090,34.180
1688994309.933,0.488,25.879,28.809,14.648,48.828
1688994309.937,-0.488,24.414,28.809,20.020,38.574
1688994309.941,7.324,20.996,25.391,32.715,2.930
1688994309.945,7.812,16.113,21.484,36.621,-58.594
1688994309.949,8.789,18.555,20.508,22.949,-5.371
1688994309.953,23.438,11.230,20.996,32.715,43.945
1688994309.956,43.457,6.348,22.949,64.453,8.301
1688994309.960,35.156,9.766,22.461,51.270,0.977
1688994309.964,17.090,10.742,20.508,29.785,37.598
1688994309.968,10.742,13.672,25.391,34.668,55.176
1688994309.972,15.625,11.230,30.762,41.504,0.488
1688994309.976,29.297,4.395,27.344,44.434,-8.789
1688994309.980,30.273,-0.488,27.344,58.594,-13.184
1688994309.984,28.320,-0.488,31.250,66.895,23.438
1688994309.988,34.668,-6.836,35.645,54.688,31.250
1688994309.992,42.480,-4.883,42.480,46.387,-35.645
1688994309.995,49.805,0.977,47.852,55.176,16.602
1688994309.999,54.688,2.441,51.270,63.477,53.711
1688994310.003,58.594,11.230,52.734,66.406,60.059
1688994310.007,50.781,17.578,49.316,48.828,50.781
1688994310.011,45.898,17.578,41.504,35.156,39.551
1688994310.015,43.945,18.066,37.109,43.457,88.867
1688994310.019,39.062,19.043,34.180,47.852,44.922
1688994310.023,38.574,16.602,33.203,41.504,13.672
1688994310.027,35.156,22.949,27.832,38.574,52.734
1688994310.031,22.949,31.738,20.508,28.809,135.254
1688994310.035,21.973,30.273,20.508,19.531,66.895
1688994310.038,32.715,31.250,18.066,32.715,-20.020
1688994310.042,27.832,37.598,16.113,27.344,35.645
1688994310.046,23.926,39.551,18.066,17.090,20.996
1688994310.050,32.715,41.016,19.043,20.996,-7.324
1688994310.054,42.480,44.434,20.996,26.855,45.410
1688994310.058,39.062,42.480,22.461,43.945,62.988
1688994310.062,30.273,36.621,29.297,57.617,18.066
1688994310.066,25.879,38.086,34.180,53.711,-20.020
1688994310.070,13.184,35.645,32.715,39.551,6.348
1688994310.074,7.812,27.344,27.344,45.898,71.777
1688994310.077,18.066,19.531,19.531,44.434,63.965
1688994310.081,20.508,25.391,17.578,35.645,11.719
1688994310.085,16.113,30.762,15.625,33.691,28.809
1688994310.089,12.207,28.320,10.742,18.555,48.828
1688994310.093,18.555,20.996,3.906,6.836,41.504
1688994310.097,24.414,18.066,0.977,20.996,36.133
1688994310.101,30.273,25.391,0.488,28.320,23.926
1688994310.105,30.762,25.879,0.977,18.555,15.625
1688994310.109,27.344,30.273,7.812,20.020,-1.953
1688994310.113,35.645,28.320,14.648,23.926,12.207
1688994310.117,49.316,20.508,16.602,31.250,51.270
1688994310.120,51.758,18.555,19.531,53.711,23.926
1688994310.124,49.316,24.902,26.855,45.410,24.414
1688994310.128,34.180,25.879,30.762,20.020,-2.441
1688994310.132,24.902,24.414,29.297,15.137,-10.742
1688994310.136,27.832,29.785,27.832,35.645,31.250
1688994310.140,20.508,29.297,26.367,43.945,-43.457
1688994310.144,18.555,24.414,26.367,35.645,20.996
1688994310.148,7.324,26.855,32.715,29.785,133.301
1688994310.152,-8.789,26.855,31.738,21.973,48.828
1688994310.156,-6.836,22.461,26.367,27.344,41.016
1688994310.160,-2.441,28.809,26.855,38.574,50.293
1688994310.163,-11.719,31.738,24.902,36.621,-21.484
1688994310.167,-21.973,29.297,21.484,24.414,14.648
1688994310.171,-32.227,27.832,15.625,9.277,46.875
1688994310.175,-33.691,25.391,12.207,20.996,21.973
1688994310.179,-21.973,24.414,13.672,36.133,-5.371
1688994310.183,-17.578,26.855,13.184,19.043,33.203
1688994310.187,-10.254,25.879,11.230,12.207,56.152
1688994310.191,-6.836,25.391,10.254,17.578,69.336
1688994310.195,0.000,25.879,5.371,19.043,75.684
1688994310.199,15.625,32.715,1.953,28.809,29.785
1688994310.202,29.785,37.109,1.465,23.438,62.500
1688994310.206,28.320,39.551,-3.906,1.953,89.844
1688994310.210,23.438,35.156,-5.859,7.812,62.012
1688994310.214,35.156,34.668,-0.977,9.766,84.473
1688994310.218,43.457,41.504,6.836,18.555,62.012
1688994310.222,37.109,40.527,11.230,13.184,-25.879
1688994310.226,39.551,37.109,14.648,5.859,-14.160
1688994310.230,41.504,36.133,18.555,13.672,-29.785
1688994310.234,40.527,40.039,23.438,18.555,-26.855
1688994310.238,36.621,35.156,25.879,15.137,45.898
1688994310.242,32.715,32.715,22.949,31.250,40.039
1688994310.245,32.715,33.203,24.902,27.832,-11.719
1688994310.249,28.809,34.668,33.691,-1.465,-3.906
1688994310.253,25.391,37.598,37.109,11.230,-6.836
1688994310.257,19.531,33.691,32.715,32.227,-16.113
1688994310.261,13.184,28.809,27.344,39.551,20.508
1688994310.265,16.113,17.090,25.879,34.180,13.184
1688994310.269,24.902,14.160,24.902,30.273,-31.738
1688994310.273,15.625,26.855,20.508,41.016,-30.762
1688994310.277,22.461,30.273,12.695,48.340,53.711
1688994310.281,31.250,31.250,14.160,52.246,61.523
1688994310.285,30.273,37.109,21.484,39.551,18.066
1688994310.288,29.785,40.039,24.902,23.926,75.684
1688994310.292,29.785,41.992,24.902,25.391,78.125
1688994310.296,31.738,42.480,15.137,24.902,-13.672
1688994310.300,27.344,38.574,6.348,21.973,-32.715
1688994310.304,29.297,38.086,4.883,17.090,52.734
1688994310.308,21.973,35.645,9.277,4.395,68.848
1688994310.312,7.812,31.738,12.695,7.324,39.551
1688994310.316,14.160,38.086,9.766,10.254,33.203
1688994310.320,25.879,41.504,14.648,14.160,-3.418
1688994310.324,16.602,45.410,19.043,25.391,8.789
1688994310.327,2.441,46.875,19.043,19.531,-10.742
1688994310.331,2.441,43.945,25.391,10.742,10.254
1688994310.335,-0.488,41.504,29.785,17.090,63.477
1688994310.339,5.371,37.598,35.156,29.785,51.270
1688994310.343,15.137,26.367,40.039,38.086,20.020
1688994310.347,10.254,24.414,40.039,29.297,33.203
1688994310.351,3.906,33.203,39.551,21.973,60.547
1688994310.355,10.742,32.227,38.574,28.320,18.066
1688994310.359,30.762,32.227,38.574,37.598,-21.484
1688994310.363,47.852,39.062,42.969,52.734,18.555
1688994310.367,46.387,42.480,46.387,40.527,28.809
1688994310.370,32.227,41.504,42.969,21.973,28.320
1688994310.374,34.668,37.598,40.527,28.320,20.020
1688994310.378,37.109,35.645,36.133,32.715,68.848
1688994310.382,40.039,37.598,32.227,39.062,91.797
1688994310.386,44.434,39.062,31.738,29.785,22.461
1688994310.390,36.621,41.504,29.297,19.043,26.855
1688994310.394,36.621,39.062,23.438,20.020,31.250
1688994310.398,39.551,37.109,21.973,30.273,14.648
1688994310.402,38.574,28.809,19.531,27.832,23.926
1688994310.406,36.621,22.461,20.996,18.066,0.977
1688994310.409,25.879,24.414,22.461,17.578,43.457
1688994310.413,21.484,22.461,19.531,20.020,17.578
1688994310.417,27.344,26.855,18.555,30.762,-9.277
1688994310.421,15.625,29.297,17.090,37.598,73.242
1688994310.425,-2.930,26.367,17.090,27.344,87.402
1688994310.429,-9.277,19.531,24.414,13.184,34.180
1688994310.433,0.000,16.113,26.367,17.578,13.672
1688994310.437,5.859,24.902,26.367,24.902,41.992
1688994310.441,18.066,27.832,25.879,30.762,55.176
1688994310.445,20.508,21.484,25.391,25.879,27.832
1688994310.449,7.324,19.531,27.832,19.531,-7.812
1688994310.452,19.043,20.996,30.762,30.273,6.348
1688994310.456,32.227,24.414,29.785,26.367,67.383
1688994310.460,20.508,26.367,32.715,24.902,45.898
1688994310.464,18.066,25.391,36.621,24.414,-11.230
1688994310.468,19.531,24.902,34.180,12.207,1.953
1688994310.472,9.277,22.461,35.645,11.719,17.578
1688994310.476,8.301,26.855,35.156,21.484,-2.441
1688994310.480,13.184,26.367,31.738,23.438,6.348
1688994310.484,12.207,19.531,33.691,24.902,22.949
1688994310.488,11.719,21.484,31.738,26.367,12.207
1688994310.492,20.508,28.320,29.297,15.625,-5.371
1688994310.495,14.160,15.137,38.574,29.785,2.441
1688994310.499,20.020,15.625,45.410,36.133,29.785
1688994310.503,18.555,37.109,45.410,22.949,42.480
1688994310.507,-1.953,40.527,42.969,16.113,70.312
1688994310.511,7.812,33.691,39.551,13.672,75.684
1688994310.515,18.555,27.832,35.645,18.555,-25.879
1688994310.519,25.391,31.250,34.180,34.668,-29.297
1688994310.523,28.809,32.227,33.203,35.156,68.359
1688994310.527,23.438,28.320,32.715,23.438,26.367
1688994310.531,19.531,26.367,33.691,27.832,28.809
1688994310.534,24.902,23.438,29.785,34.180,91.309
1688994310.538,42.480,19.043,32.715,48.828,54.688
1688994310.542,41.016,22.461,37.598,48.340,69.336
1688994310.546,28.320,24.414,32.227,29.785,66.406
1688994310.550,31.250,17.090,33.203,29.785,17.578
1688994310.554,30.762,16.602,34.180,38.574,14.160
1688994310.558,37.598,18.555,32.227,42.480,41.016
1688994310.562,30.273,20.020,35.645,50.293,53.223
1688994310.566,17.090,20.508,28.320,46.875,0.000
1688994310.570,17.090,22.461,28.320,32.227,6.836
1688994310.574,21.973,28.320,34.668,33.203,62.988
1688994310.577,26.855,31.738,34.668,37.598,61.035
1688994310.581,23.438,30.762,33.203,37.598,32.227
1688994310.585,19.531,28.320,32.227,31.738,10.742
1688994310.589,26.855,29.785,30.762,21.973,-6.836
1688994310.593,36.133,34.180,33.203,24.414,13.184
1688994310.597,39.062,36.621,31.738,28.809,78.613
1688994310.601,37.598,36.133,27.344,33.203,94.238
1688994310.605,26.367,40.527,33.203,26.855,61.523
1688994310.609,24.414,41.992,35.156,10.742,5.859
1688994310.613,21.973,42.969,30.273,18.066,14.648
1688994310.617,29.297,42.480,27.344,34.180,8.301
1688994310.620,32.227,42.480,22.949,36.621,10.742
1688994310.624,30.762,46.875,17.090,25.391,56.641
1688994310.628,35.645,49.316,15.137,19.043,23.438
1688994310.632,46.387,48.828,2.441,20.020,-10.742
1688994310.636,81.055,54.199,-7.812,57.617,5.371
1688994310.640,83.984,52.246,18.066,81.543,33.203
1688994310.644,28.809,29.297,47.363,39.062,85.938
1688994310.648,15.137,27.344,40.527,15.625,6.836
1688994310.652,29.785,37.598,35.645,28.320,10.742
1688994310.656,17.578,36.621,45.410,30.273,114.258
1688994310.659,14.160,27.344,43.945,29.785,95.703
1688994310.663,12.695,24.902,44.922,25.879,58.594
1688994310.667,-2.930,30.762,37.109,19.531,45.410
1688994310.671,-3.418,36.621,27.344,21.484,48.340
1688994310.675,-12.695,34.668,38.086,20.996,58.594
1688994310.679,-13.184,22.461,32.715,26.367,61.035
1688994310.683,1.465,21.484,27.344,29.785,88.867
1688994310.687,-1.953,27.832,31.738,25.879,92.285
1688994310.691,-5.371,32.227,26.855,20.996,26.855
1688994310.695,2.930,30.273,26.855,25.391,-3.418
1688994310.699,15.625,23.926,29.785,38.086,19.043
1688994310.702,19.043,21.973,30.273,38.086,36.621
1688994310.706,14.160,27.832,33.691,32.227,43.945
1688994310.710,11.230,33.203,35.156,33.203,5.859
1688994310.714,15.625,31.738,33.203,36.133,-4.395
1688994310.718,23.926,31.250,31.738,43.945,30.273
1688994310.722,24.902,32.715,28.809,39.062,2.930
1688994310.726,22.461,29.297,23.926,34.180,2.930
1688994310.730,18.555,22.949,30.762,32.715,12.207
1688994310.734,16.113,20.508,36.133,22.949,-17.578
1688994310.738,20.020,20.996,33.691,33.691,-4.395
1688994310.742,12.695,24.414,35.645,35.156,78.613
1688994310.745,12.695,22.461,35.156,25.391,111.816
1688994310.749,15.137,15.625,32.227,25.879,77.637
1688994310.753,8.789,23.926,30.273,25.879,31.250
1688994310.757,18.555,32.715,28.809,34.180,37.109
1688994310.761,21.973,29.785,31.250,40.527,-3.906
1688994310.765,18.066,24.414,28.320,37.109,1.465
1688994310.769,21.973,24.902,23.926,32.715,-7.812
1688994310.773,24.902,25.879,22.461,40.039,2.930
1688994310.777,31.738,20.996,24.902,50.781,66.406
1688994310.781,26.367,18.555,31.738,49.805,20.996
1688994310.784,23.438,20.020,30.762,45.410,21.484
1688994310.788,28.320,18.066,24.902,39.062,72.754
1688994310.792,30.273,13.672,25.879,48.340,38.574
1688994310.796,32.715,13.672,31.250,52.734,34.668
1688994310.800,31.738,11.719,24.414,45.898,99.609
1688994310.804,31.738,11.230,21.484,33.691,21.973
1688994310.808,26.367,17.578,26.367,22.461,-44.922
1688994310.812,22.949,23.926,20.508,35.156,13.672
1688994310.816,27.832,28.809,17.578,40.527,58.594
1688994310.820,33.691,31.738,20.508,34.180,42.969
1688994310.824,33.203,26.855,22.949,32.715,39.062
1688994310.827,27.344,23.438,25.879,34.180,19.531
1688994310.831,31.250,26.855,25.879,30.762,-0.977
1688994310.835,32.227,26.855,24.902,34.180,13.672
1688994310.839,22.461,26.855,24.414,41.016,56.152
1688994310.843,17.090,25.391,21.484,36.621,84.961
1688994310.847,14.648,22.461,20.996,26.855,49.805
1688994310.851,11.719,24.902,28.809,22.949,13.672
1688994310.855,17.578,29.785,28.809,33.203,-6.836
1688994310.859,20.020,32.715,18.066,29.785,-20.996
1688994310.863,12.695,28.320,16.602,16.602,1.953
1688994310.866,10.254,24.414,22.461,16.113,41.504
1688994310.870,12.695,20.508,20.508,12.207,63.965
1688994310.874,20.996,20.020,19.531,5.371,57.617
1688994310.878,22.461,24.414,22.461,14.160,22.461
1688994310.882,18.555,23.926,22.949,12.695,4.883
1688994310.886,16.113,21.973,21.973,-0.488,52.246
1688994310.890,12.207,24.902,23.926,2.930,61.035
1688994310.894,12.207,25.879,27.344,12.207,51.758
1688994310.898,21.973,26.367,23.926,19.531,55.664
1688994310.902,28.320,21.484,22.949,25.391,-2.441
1688994310.906,23.438,14.648,25.879,19.043,-59.082
1688994310.909,16.113,16.113,27.832,21.484,-36.621
1688994310.913,15.137,19.531,23.926,33.691,13.672
1688994310.917,25.879,20.996,27.832,36.133,36.133
1688994310.921,20.996,22.949,34.668,39.062,-8.789
1688994310.925,10.254,26.367,36.621,26.855,24.414
1688994310.929,9.766,24.414,39.062,17.090,34.668
1688994310.933,20.996,22.949,38.574,29.785,20.996
1688994310.937,25.391,26.855,37.598,40.039,51.758
1688994310.941,8.301,24.414,38.574,36.621,-35.645
1688994310.945,5.371,21.973,35.156,33.691,-37.598
1688994310.949,8.789,21.484,28.320,29.297,69.824
1688994310.952,8.301,21.973,26.855,22.949,78.125
1688994310.956,12.695,22.949,31.250,26.855,75.195
1688994310.960,15.137,28.320,36.133,32.227,54.199
1688994310.964,11.230,34.668,37.109,29.297,58.105
1688994310.968,7.324,35.156,31.250,18.555,58.594
1688994310.972,26.367,35.156,14.160,22.949,21.484
1688994310.976,65.430,39.551,3.906,48.828,24.902
1688994310.980,58.594,38.086,22.949,49.805,46.875
1688994310.984,28.809,32.715,37.598,34.668,93.750
1688994310.988,17.578,33.203,40.039,24.414,13.672
1688994310.991,5.371,31.250,41.992,2.930,-22.461
1688994310.995,25.391,28.320,36.133,12.695,8.301
1688994310.999,37.109,28.809,40.039,34.180,43.457
1688994311.003,19.531,28.320,46.387,37.109,67.383
1688994311.007,17.090,26.367,43.457,25.879,33.203
1688994311.011,24.414,20.020,41.504,25.391,24.902
1688994311.015,33.691,17.090,39.551,51.758,58.594
1688994311.019,36.133,21.973,36.621,45.410,19.531
1688994311.023,29.785,17.090,33.691,29.785,-20.996
1688994311.027,29.297,19.043,32.715,38.086,-7.324
1688994311.031,31.738,25.879,35.156,45.898,15.625
1688994311.034,23.438,11.719,35.156,47.363,29.785
1688994311.038,31.250,15.137,36.621,55.176,18.066
1688994311.042,34.668,27.832,34.668,56.152,6.836
1688994311.046,37.109,20.996,35.645,47.852,9.766
1688994311.050,39.062,18.066,39.551,34.180,-34.668
1688994311.054,20.996,21.484,39.551,37.109,23.926
1688994311.058,16.113,16.602,42.480,49.805,69.336
1688994311.062,21.973,15.625,42.480,45.410,19.531
1688994311.066,20.020,23.438,39.551,42.969,17.090
1688994311.070,17.090,29.297,33.203,43.945,69.336
1688994311.074,24.902,30.762,35.156,42.969,47.852
1688994311.077,30.762,32.715,38.574,53.223,39.062
1688994311.081,30.762,40.527,37.598,54.688,98.145
1688994311.085,31.250,46.875,41.992,42.969,11.230
1688994311.089,24.414,40.039,35.645,33.691,-9.277
1688994311.093,27.832,34.180,26.855,31.250,35.645
1688994311.097,40.039,36.133,20.996,37.109,41.504
1688994311.101,33.203,37.598,20.508,36.621,23.926
1688994311.105,21.484,32.227,27.344,27.344,48.828
1688994311.109,22.949,32.227,21.484,24.414,60.059
1688994311.113,14.160,27.832,21.973,30.273,69.824
1688994311.116,17.578,23.438,33.203,42.480,100.586
1688994311.120,23.438,28.320,35.645,54.199,97.168
1688994311.124,16.113,33.203,33.203,48.340,89.355
1688994311.128,22.461,31.250,35.645,43.457,51.758
1688994311.132,22.949,26.855,32.227,41.504,27.344
1688994311.136,19.531,25.391,26.367,36.133,8.789
1688994311.140,19.531,22.461,25.879,38.086,9.766
1688994311.144,20.020,27.832,20.020,34.180,21.973
1688994311.148,24.414,31.738,19.531,36.133,29.297
1688994311.152,23.438,29.297,23.926,39.062,12.207
1688994311.156,31.738,34.668,28.809,44.434,52.734
1688994311.159,32.227,40.527,29.297,48.340,80.566
1688994311.163,34.180,43.457,26.367,39.551,40.039
1688994311.167,40.039,46.875,26.855,39.062,51.270
1688994311.171,35.156,53.223,22.949,33.691,82.520
1688994311.175,40.039,52.734,23.438,37.598,102.051
1688994311.179,47.363,46.387,27.344,49.805,-9.277
1688994311.183,47.363,44.434,22.461,41.504,-51.758
1688994311.187,58.105,49.805,6.836,50.293,15.137
1688994311.191,76.172,54.199,5.859,60.059,37.598
1688994311.195,57.129,49.316,26.367,45.410,0.488
1688994311.198,36.621,41.016,27.832,41.992,-33.203
1688994311.202,38.574,33.691,22.461,43.457,30.762
1688994311.206,19.531,38.574,33.691,26.855,107.422
1688994311.210,14.648,41.992,32.227,26.855,99.121
1688994311.214,24.902,40.039,31.250,26.367,-19.531
1688994311.218,20.996,39.551,30.273,35.156,-56.641
1688994311.222,15.137,28.320,33.691,48.340,29.785
1688994311.226,0.977,25.391,43.945,27.832,-11.230
1688994311.230,11.719,29.785,39.062,28.809,5.859
1688994311.234,23.926,28.809,36.133,48.828,27.832
1688994311.238,19.043,31.738,35.645,39.551,65.430
1688994311.241,18.555,38.086,29.785,20.508,61.035
1688994311.245,29.297,41.504,30.762,17.578,-7.324
1688994311.249,38.574,44.922,27.832,26.855,-4.395
1688994311.253,24.902,49.805,29.785,33.203,-4.883
1688994311.257,14.648,43.945,31.250,32.227,5.859
1688994311.261,25.879,36.133,26.367,30.762,0.488
1688994311.265,23.926,38.086,30.762,25.879,34.180
1688994311.269,25.391,43.945,31.250,27.832,77.637
1688994311.273,41.016,43.945,30.273,32.715,77.637
1688994311.277,34.668,41.016,35.156,36.133,70.801
1688994311.281,30.762,40.039,36.621,39.551,54.688
1688994311.284,35.156,41.504,36.133,44.434,29.297
1688994311.288,25.879,41.016,38.574,39.551,10.742
1688994311.292,25.879,39.551,40.527,37.109,-16.602
1688994311.296,25.879,41.504,41.016,41.504,-26.367
1688994311.300,27.832,37.598,42.480,43.457,79.102
1688994311.304,22.461,34.180,43.457,38.574,112.793
1688994311.308,14.160,33.691,41.992,26.855,70.801
1688994311.312,19.043,31.738,36.133,37.109,16.113
1688994311.316,19.043,33.203,34.668,41.016,-11.230
1688994311.320,17.090,28.320,35.156,44.434,16.113
1688994311.323,21.484,28.320,32.227,41.504,-31.738
1688994311.327,20.508,34.668,32.715,28.809,-49.805
1688994311.331,19.531,32.227,28.320,29.297,4.395
1688994311.335,29.297,25.391,19.043,39.062,-16.602
1688994311.339,35.156,26.367,15.137,37.598,-3.906
1688994311.343,26.855,27.832,19.531,35.156,-26.367
1688994311.347,23.438,22.949,22.461,35.156,-0.977
1688994311.351,31.738,22.461,19.531,30.762,37.109
1688994311.355,30.762,24.902,24.902,41.016,0.977
1688994311.359,31.738,23.926,30.273,41.504,11.719
1688994311.363,33.691,21.973,30.762,43.457,34.668
1688994311.366,30.273,28.320,34.668,34.668,83.008
1688994311.370,31.738,29.297,37.109,26.855,30.762
1688994311.374,25.879,30.762,37.109,43.457,63.477
1688994311.378,26.367,29.785,39.062,34.668,49.316
1688994311.382,20.996,25.879,39.062,28.809,-41.992
1688994311.386,17.090,27.832,33.691,29.297,5.371
1688994311.390,14.160,23.926,38.086,22.461,17.090
1688994311.394,17.578,26.855,40.527,24.414,38.086
1688994311.398,29.297,30.273,39.062,30.762,86.914
1688994311.402,32.227,28.809,39.551,28.809,83.496
1688994311.406,27.832,32.715,39.551,21.484,8.789
1688994311.409,24.414,35.156,40.527,22.461,-14.160
1688994311.413,31.738,33.203,35.645,41.992,40.039
1688994311.417,30.762,32.227,35.156,43.457,100.098
1688994311.421,20.508,37.109,36.133,32.715,74.219
1688994311.425,20.996,32.715,29.785,24.414,-5.859
1688994311.429,23.438,33.203,28.320,13.184,12.695
1688994311.433,23.438,30.762,30.762,25.391,82.520
1688994311.437,24.902,27.344,32.715,40.039,58.594
1688994311.441,24.414,32.715,32.227,34.668,33.691
1688994311.445,23.926,27.344,26.855,30.762,-7.324
1688994311.448,23.926,26.367,22.949,24.902,4.883
1688994311.452,32.227,28.320,19.531,20.508,30.273
1688994311.456,17.578,29.785,18.555,27.344,-8.789
1688994311.460,13.672,19.531,28.320,42.969,49.805
1688994311.464,46.875,8.789,39.062,77.148,89.844
1688994311.468,33.691,22.461,31.250,55.664,41.992
1688994311.472,-9.277,33.691,13.672,-7.812,12.207
1688994311.476,-13.184,31.738,10.742,-4.883,10.254
1688994311.480,-7.812,26.367,11.230,7.324,35.156
1688994311.484,-0.977,28.809,13.672,2.930,99.609
1688994311.488,-5.371,35.156,13.184,-1.953,72.754
1688994311.491,-8.789,34.180,10.254,-14.648,25.391
1688994311.495,-2.441,37.598,15.137,-16.113,26.367
1688994311.499,0.977,41.992,17.578,-1.465,7.324
1688994311.503,-5.371,42.969,13.184,-8.301,29.297
1688994311.507,-2.930,43.457,9.277,-27.344,61.523
1688994311.511,-1.465,43.457,13.672,-30.762,19.531
1688994311.515,0.488,47.852,16.113,-35.645,28.809
1688994311.519,5.859,50.781,11.230,-17.578,84.961
1688994311.523,-5.859,52.246,8.301,-24.414,68.848
1688994311.527,-9.277,52.734,3.906,-50.293,29.785
1688994311.530,10.742,50.781,6.348,-32.227,30.762
1688994311.534,23.926,50.293,12.695,6.348,-23.926
1688994311.538,27.832,50.781,20.996,17.090,-45.410
1688994311.542,16.113,42.969,29.297,-1.953,18.555
1688994311.546,11.719,40.039,20.020,-11.230,50.293
1688994311.550,21.484,29.785,14.160,-0.977,58.594
1688994311.554,21.484,18.555,14.160,15.625,74.219
1688994311.558,32.715,25.879,15.137,19.043,9.277
1688994311.562,28.320,31.738,16.113,16.602,15.625
1688994311.566,17.090,28.320,13.184,11.719,1.953
1688994311.570,24.902,23.438,17.090,20.020,7.812
1688994311.573,35.156,18.066,18.555,36.621,38.574
1688994311.577,40.039,22.461,20.508,35.645,32.227
1688994311.581,35.645,28.809,20.020,32.227,36.621
1688994311.585,28.809,32.227,21.973,34.668,48.828
1688994311.589,33.691,23.926,16.602,27.344,31.250
1688994311.593,39.551,19.043,13.672,26.367,12.695
1688994311.597,35.645,30.762,24.902,38.574,-8.301
1688994311.601,32.227,37.109,25.879,36.133,-16.113
1688994311.605,34.668,41.016,21.484,33.691,38.574
1688994311.609,33.203,40.039,26.855,30.273,51.758
1688994311.613,41.016,44.922,32.227,30.273,30.762
1688994311.616,38.574,52.734,28.320,33.203,41.992
1688994311.620,22.461,48.340,25.879,36.133,66.406
1688994311.624,22.949,37.598,26.855,32.715,10.254
1688994311.628,22.949,31.738,27.344,34.668,-16.113
1688994311.632,27.344,29.785,26.855,43.457,73.730
1688994311.636,38.086,27.832,29.297,45.410,86.426
1688994311.640,37.109,25.879,31.250,36.133,50.293
1688994311.644,33.691,28.809,34.180,28.320,67.383
1688994311.648,34.668,34.668,32.715,31.738,60.059
1688994311.652,27.832,39.062,29.785,24.414,14.160
1688994311.655,32.715,29.785,29.297,28.320,36.621
1688994311.659,43.457,20.020,29.785,35.156,72.754
1688994311.663,32.715,19.531,32.715,21.973,64.941
1688994311.667,26.367,12.207,31.738,16.602,2.930
1688994311.671,28.320,13.184,31.250,28.809,-28.320
1688994311.675,29.297,23.438,34.668,37.598,52.734
1688994311.679,38.086,33.691,34.180,35.156,107.422
1688994311.683,32.227,38.574,33.203,22.949,126.465
1688994311.687,21.484,31.250,36.621,18.066,73.730
1688994311.691,21.973,26.855,36.133,23.438,40.527
1688994311.695,25.879,30.762,30.762,25.391,82.031
1688994311.698,24.414,32.227,29.297,34.180,83.496
1688994311.702,33.691,26.367,31.250,47.852,48.340
1688994311.706,71.777,24.902,38.574,84.961,-6.836
1688994311.710,60.059,41.504,38.086,73.242,0.488
1688994311.714,23.926,55.664,28.320,37.598,40.039
1688994311.718,24.414,53.711,19.531,25.391,53.711
1688994311.722,20.508,50.293,20.996,18.066,58.105
1688994311.726,12.695,58.594,20.020,13.672,-10.742
1688994311.730,9.766,60.059,19.531,3.418,-20.996
1688994311.734,18.066,48.340,21.484,17.090,35.645
1688994311.738,33.203,53.223,12.695,19.043,46.875
1688994311.741,28.809,49.316,20.508,23.926,46.875
1688994311.745,16.602,38.086,29.297,31.250,34.180
1688994311.749,11.719,39.551,30.273,26.855,21.973
1688994311.753,16.602,33.203,33.691,32.715,23.926
1688994311.757,20.508,23.438,38.574,27.832,20.996
1688994311.761,22.461,28.809,38.086,23.926,-0.977
1688994311.765,18.555,32.227,36.133,20.020,65.918
1688994311.769,11.719,28.320,39.062,22.461,61.523
1688994311.773,13.672,23.926,37.109,25.391,0.000
1688994311.777,21.484,28.809,38.086,29.785,0.488
1688994311.780,29.785,32.715,35.645,44.434,58.594
1688994311.784,37.109,33.203,29.785,36.621,46.875
1688994311.788,47.363,35.645,28.320,21.484,-22.949
1688994311.792,41.992,36.133,27.832,32.715,2.441
1688994311.796,40.039,30.762,24.414,36.133,30.762
1688994311.800,40.039,26.367,21.484,32.227,32.227
1688994311.804,34.668,33.203,24.414,32.227,40.527
1688994311.808,28.320,43.945,23.438,27.344,28.809
1688994311.812,34.668,37.598,19.531,29.297,22.461
1688994311.816,44.434,30.762,22.461,43.945,35.645
1688994311.820,46.875,32.715,28.809,48.828,20.508
1688994311.823,42.969,30.273,26.367,49.805,-3.906
1688994311.827,41.016,30.273,26.367,50.293,29.785
1688994311.831,45.898,36.621,28.809,39.551,25.391
1688994311.835,51.270,39.062,25.391,40.039,10.254
1688994311.839,47.363,38.086,26.855,40.039,20.020
1688994311.843,55.176,37.598,13.184,47.852,75.195
1688994311.847,75.195,40.527,11.230,63.477,37.109
1688994311.851,43.945,31.250,37.598,41.016,17.578
1688994311.855,-5.859,18.555,52.734,19.531,75.195
1688994311.859,-13.672,23.438,47.852,18.555,5.859
1688994311.862,-13.672,28.809,43.945,2.930,-23.926
1688994311.866,-10.254,29.297,47.363,3.418,48.340
1688994311.870,-16.113,29.297,54.688,5.371,-6.348
1688994311.874,-27.344,29.297,58.105,-0.488,-15.137
1688994311.878,-12.695,32.715,51.270,15.625,54.199
1688994311.882,-25.879,31.250,54.199,15.137,49.316
1688994311.886,-34.668,33.203,59.082,1.953,-7.324
1688994311.890,-10.742,41.504,53.223,9.277,-20.020
1688994311.894,6.348,51.270,41.016,14.160,13.672
1688994311.898,6.836,53.223,35.645,15.625,33.203
1688994311.902,4.883,45.898,36.133,17.578,32.715
1688994311.905,5.859,45.898,31.250,5.371,32.715
1688994311.909,10.742,53.223,27.344,7.812,33.203
1688994311.913,17.578,50.781,29.297,20.508,7.324
1688994311.917,30.762,42.969,32.227,34.180,-21.973
1688994311.921,27.832,45.410,30.273,29.785,25.879
1688994311.925,19.043,44.922,31.250,19.531,65.430
1688994311.929,15.137,41.992,37.109,30.762,26.367
1688994311.933,13.672,42.480,42.969,30.762,95.215
1688994311.937,23.926,36.621,46.387,32.715,70.801
1688994311.941,22.461,32.227,49.805,41.016,-28.320
1688994311.945,15.625,30.762,46.387,28.809,31.250
1688994311.948,12.695,25.879,45.898,23.926,7.812
1688994311.952,11.719,23.926,52.734,26.855,50.293
1688994311.956,17.578,27.832,47.363,26.367,76.660
1688994311.960,20.020,27.344,38.086,38.086,2.441
1688994311.964,10.254,26.855,40.527,31.250,32.715
1688994311.968,4.883,30.762,40.527,24.414,45.410
1688994311.972,12.695,35.156,35.156,29.785,44.922
1688994311.976,18.066,31.738,32.715,46.387,39.551
1688994311.980,14.648,28.320,27.832,39.062,48.340
1688994311.984,18.066,30.273,28.320,21.973,43.945
1688994311.987,19.043,34.180,25.879,30.273,6.836
1688994311.991,23.926,35.645,18.555,20.996,74.707
1688994311.995,31.250,31.250,19.043,25.391,68.848
1688994311.999,30.762,25.879,17.578,39.062,14.160
1688994312.003,28.809,24.414,18.066,27.344,26.855
1688994312.007,26.855,22.949,16.602,21.484,35.645
1688994312.011,33.203,25.879,15.625,25.391,53.711
1688994312.015,35.645,33.691,23.438,32.715,9.277
1688994312.019,29.785,32.715,24.902,39.551,8.789
1688994312.023,17.578,27.832,23.926,30.273,20.508
1688994312.027,13.184,22.949,23.438,18.555,6.836
1688994312.030,23.438,21.973,19.043,16.113,36.133
1688994312.034,24.902,16.113,24.902,38.086,45.898
1688994312.038,19.043,14.648,27.344,47.852,17.578
1688994312.042,8.301,16.113,26.367,29.785,-17.578
1688994312.046,6.348,16.602,33.203,30.762,-1.465
1688994312.050,18.555,13.672,39.062,29.297,89.844
1688994312.054,29.297,9.766,40.527,32.715,73.242
1688994312.058,18.555,11.230,31.250,34.668,36.133
1688994312.062,42.480,22.461,11.719,37.109,82.520
1688994312.066,55.664,20.020,18.066,58.105,39.551
1688994312.070,31.250,3.418,40.527,42.969,-63.965
1688994312.073,14.648,6.836,43.945,15.137,-36.621
1688994312.077,5.859,13.184,38.574,11.230,16.113
1688994312.081,15.137,12.695,36.621,9.766,4.883
1688994312.085,11.230,12.695,33.203,7.812,-23.438
1688994312.089,6.348,16.113,28.320,1.953,50.781
1688994312.093,6.348,20.020,20.996,18.555,45.410
1688994312.097,0.000,17.578,19.043,21.973,-37.109
1688994312.101,0.000,18.066,20.020,20.508,36.133
1688994312.105,-6.836,13.672,22.949,11.719,109.375
1688994312.109,-2.930,9.766,23.438,16.113,73.242
1688994312.112,23.926,18.066,17.090,41.992,19.531
1688994312.116,34.180,24.902,20.996,54.199,66.406
1688994312.120,21.973,27.832,20.508,58.594,70.801
1688994312.124,15.137,23.926,10.254,47.852,68.359
1688994312.128,10.254,20.508,14.648,31.738,104.004
1688994312.132,3.418,20.020,18.555,37.109,44.434
1688994312.136,4.395,15.625,20.508,55.176,14.160
1688994312.140,1.953,13.672,22.949,57.129,29.785
1688994312.144,0.488,10.742,22.949,44.922,58.594
1688994312.148,0.977,13.184,27.344,40.527,95.215
1688994312.152,1.953,12.207,23.926,48.340,68.359
1688994312.155,6.836,1.465,18.066,55.176,19.043
1688994312.159,12.207,4.395,18.555,50.293,12.207
1688994312.163,18.555,17.090,15.137,47.363,23.926
1688994312.167,12.695,20.508,10.742,42.969,56.641
1688994312.171,14.648,20.508,4.883,31.738,79.590
1688994312.175,25.879,14.648,0.977,35.156,71.777
1688994312.179,20.508,17.090,0.000,40.527,49.316
1688994312.183,19.043,18.066,1.953,34.180,13.672
1688994312.187,29.785,12.207,10.254,29.785,-2.441
1688994312.191,31.738,10.742,9.766,44.434,49.316
1688994312.195,28.320,10.254,5.859,61.035,87.891
1688994312.198,32.227,19.531,8.301,56.641,61.523
1688994312.202,42.969,20.996,12.695,47.363,59.082
1688994312.206,43.945,24.902,10.742,49.805,85.449
1688994312.210,42.969,33.203,9.277,63.477,51.270
1688994312.214,53.711,36.621,9.277,68.848,-9.277
1688994312.218,54.688,36.621,8.789,66.406,52.246
1688994312.222,44.434,33.203,5.371,49.805,36.133
1688994312.226,37.598,38.086,2.930,36.133,-35.645
1688994312.230,36.133,37.598,4.883,41.016,32.227
1688994312.234,27.832,37.109,7.324,46.387,46.875
1688994312.237,29.785,38.574,6.836,46.387,83.008
1688994312.241,27.832,39.062,16.602,43.457,89.355
1688994312.245,18.066,43.945,27.344,27.832,16.602
1688994312.249,20.020,44.922,23.926,20.508,10.254
1688994312.253,18.555,39.551,19.043,23.438,-7.324
1688994312.257,21.484,41.016,18.066,18.555,31.250
1688994312.261,22.461,44.434,19.043,3.906,31.738
1688994312.265,29.297,39.551,20.996,4.883,-6.348
1688994312.269,50.781,31.250,25.391,20.508,11.230
1688994312.273,46.387,37.109,30.273,20.996,38.574
1688994312.277,31.250,54.199,18.555,9.766,10.742
1688994312.280,12.207,57.129,9.766,-3.906,-6.348
1688994312.284,-5.371,47.363,7.812,-13.672,11.230
1688994312.288,-6.836,40.039,8.789,-5.371,59.570
1688994312.292,-0.488,34.668,18.066,11.230,61.035
1688994312.296,12.695,37.598,20.508,25.879,21.484
1688994312.300,32.227,39.062,20.996,32.715,13.672
1688994312.304,27.344,40.039,20.508,17.578,20.508
1688994312.308,19.043,41.504,22.949,17.578,58.105
1688994312.312,28.809,42.480,31.250,29.785,45.898
1688994312.316,32.227,42.480,33.203,31.250,47.852
1688994312.319,23.926,38.086,32.715,21.973,112.793
1688994312.323,16.113,31.250,33.203,13.672,100.586
1688994312.327,24.902,30.762,30.273,16.113,34.668
1688994312.331,32.227,37.598,30.273,25.391,-10.254
1688994312.335,24.902,38.574,34.180,36.133,31.250
1688994312.339,31.250,47.852,31.250,38.574,28.320
1688994312.343,15.625,56.641,27.832,36.621,13.672
1688994312.347,7.812,50.293,33.691,23.438,33.691
1688994312.351,19.043,40.527,36.133,11.719,27.832
1688994312.355,9.766,45.898,30.762,20.996,67.383
1688994312.359,5.859,51.758,26.367,28.320,59.082
1688994312.362,13.672,49.316,27.344,22.949,33.203
1688994312.366,10.254,47.363,30.273,23.438,-8.301
1688994312.370,3.418,47.363,32.715,29.297,35.156
1688994312.374,11.719,41.992,33.203,20.508,96.191
1688994312.378,14.160,40.527,38.086,21.484,14.160
1688994312.382,16.602,41.504,42.480,29.785,13.184
1688994312.386,17.090,41.504,38.574,22.949,39.551
1688994312.390,18.066,46.387,39.551,28.320,15.625
1688994312.394,18.066,42.969,44.922,37.598,66.406
1688994312.398,20.020,34.668,44.922,34.668,59.082
1688994312.402,27.832,31.250,39.062,35.645,77.148
1688994312.405,23.926,28.320,32.715,28.809,111.816
1688994312.409,26.367,31.250,31.250,27.344,80.078
1688994312.413,35.645,27.832,30.762,38.086,22.949
1688994312.417,37.598,21.484,25.391,43.457,-14.160
1688994312.421,36.621,24.902,21.484,39.551,14.648
1688994312.425,34.180,26.855,26.855,42.480,32.227
1688994312.429,40.527,28.320,28.809,39.551,21.484
1688994312.433,41.016,25.391,25.879,36.621,22.949
1688994312.437,35.156,19.043,20.996,40.527,26.367
1688994312.441,30.762,21.484,16.113,25.879,31.250
1688994312.444,27.832,26.855,20.020,21.484,-16.113
1688994312.448,22.949,27.344,25.879,24.902,-4.395
1688994312.452,23.926,20.996,21.484,26.855,39.062
1688994312.456,30.762,19.531,19.531,27.344,-5.859
1688994312.460,21.973,21.973,23.926,26.367,48.340
1688994312.464,11.719,24.902,23.438,10.742,50.781
1688994312.468,28.320,27.832,20.020,8.789,32.715
1688994312.472,41.016,20.020,29.297,34.180,74.707
1688994312.476,38.086,26.367,36.133,47.852,77.637
1688994312.480,21.973,46.875,21.973,23.926,56.641
1688994312.484,-1.953,48.828,14.648,-13.184,-12.695
1688994312.487,0.977,41.992,14.648,-7.324,-2.930
1688994312.491,3.906,36.133,20.020,12.695,38.086
1688994312.495,10.254,35.156,29.297,22.461,10.742
1688994312.499,24.414,27.344,28.320,33.203,14.648
1688994312.503,25.879,18.066,25.391,31.738,29.297
1688994312.507,28.809,20.020,28.320,28.320,-15.137
1688994312.511,34.180,19.043,32.715,39.551,-14.648
1688994312.515,36.133,20.020,32.227,55.176,3.418
1688994312.519,40.527,26.855,31.738,49.805,-12.207
1688994312.523,46.875,26.855,31.250,44.922,4.395
1688994312.527,40.527,20.508,28.809,47.363,51.758
1688994312.530,33.203,16.602,31.738,45.898,26.855
1688994312.534,38.086,18.555,31.250,37.598,2.930
1688994312.538,37.109,20.508,30.273,39.551,41.016
1688994312.542,30.762,16.113,29.785,41.504,24.902
1688994312.546,27.832,19.531,29.297,30.273,52.246
1688994312.550,23.926,23.926,31.250,32.227,45.898
1688994312.554,26.367,21.973,30.273,33.203,52.734
1688994312.558,22.461,24.414,30.762,33.691,35.645
1688994312.562,7.812,23.926,31.250,23.438,-15.137
1688994312.566,15.137,23.438,30.762,20.020,33.691
1688994312.569,22.461,17.578,24.414,32.227,4.883
1688994312.573,26.367,15.625,23.438,32.715,-12.207
1688994312.577,34.180,14.648,26.367,30.762,32.715
1688994312.581,29.785,13.184,20.020,28.320,58.105
1688994312.585,23.926,10.742,18.066,27.832,50.293
1688994312.589,36.133,7.324,19.043,39.062,57.129
1688994312.593,38.574,10.254,15.137,40.039,31.250
1688994312.597,18.555,9.277,14.160,33.203,4.883
1688994312.601,12.695,5.371,14.160,23.926,66.406
1688994312.605,19.043,3.906,9.766,24.902,32.227
1688994312.609,10.254,4.395,10.254,27.832,11.230
1688994312.612,11.719,2.930,12.695,28.320,67.383
1688994312.616,20.996,9.277,12.695,32.715,7.324
1688994312.620,15.137,13.672,10.742,36.133,-20.020
1688994312.624,10.254,4.883,11.230,32.227,3.418
1688994312.628,0.000,1.465,18.066,26.367,32.227
1688994312.632,-1.465,3.418,21.973,22.461,24.414
1688994312.636,16.113,7.324,21.484,30.762,-19.043
1688994312.640,9.766,8.301,20.020,28.809,26.367
1688994312.644,-6.348,10.254,13.672,9.766,51.758
1688994312.648,-5.371,14.648,6.836,4.395,-16.602
1688994312.651,3.418,22.461,12.207,4.883,10.254
1688994312.655,15.137,29.297,14.648,10.254,42.480
1688994312.659,31.250,21.973,9.766,20.020,-5.859
1688994312.663,37.109,19.043,8.301,20.508,0.000
1688994312.667,27.832,29.297,13.672,20.996,11.230
1688994312.671,28.320,27.344,17.578,30.762,54.199
1688994312.675,29.785,23.926,14.160,35.645,44.434
1688994312.679,28.809,29.297,10.742,34.180,37.598
1688994312.683,32.715,28.320,12.695,36.621,67.871
1688994312.687,40.039,25.391,17.090,39.062,75.195
1688994312.691,40.527,26.367,18.066,41.504,47.363
1688994312.694,37.109,27.344,21.973,46.387,22.461
1688994312.698,39.551,24.902,24.902,53.711,8.789
1688994312.702,36.133,20.508,22.949,50.781,-34.180
1688994312.706,31.250,20.020,20.996,27.344,-50.781
1688994312.710,32.715,27.344,17.578,26.855,9.277
1688994312.714,36.133,31.250,13.184,35.156,79.102
1688994312.718,38.574,32.715,11.719,32.715,63.477
1688994312.722,30.762,40.527,16.113,34.180,62.988
1688994312.726,34.668,43.457,20.020,27.344,54.688
1688994312.730,37.598,42.969,18.555,20.508,50.781
1688994312.734,28.320,42.969,11.230,30.762,31.738
1688994312.737,31.738,42.480,7.324,29.297,-32.227
1688994312.741,38.086,43.945,8.789,21.973,-47.852
1688994312.745,30.273,43.457,14.160,26.855,-12.207
1688994312.749,26.855,44.434,17.090,22.461,19.043
1688994312.753,23.438,45.410,17.090,25.879,-6.836
1688994312.757,26.367,45.410,18.555,38.086,24.902
1688994312.761,26.367,41.016,20.508,39.062,75.195
1688994312.765,18.066,35.645,23.926,31.250,41.016
1688994312.769,20.508,35.156,24.414,31.250,44.922
1688994312.773,16.113,33.691,24.902,33.203,86.426
1688994312.776,25.879,29.785,26.367,21.484,43.457
1688994312.780,22.949,26.367,28.320,27.344,-23.926
1688994312.784,12.207,29.785,31.250,26.855,-9.766
1688994312.788,22.949,32.715,29.297,18.066,23.926
1688994312.792,27.344,24.414,26.367,28.809,30.762
1688994312.796,33.691,21.484,25.391,31.738,-28.809
1688994312.800,41.504,25.879,30.762,33.691,-28.320
1688994312.804,30.273,24.902,31.738,31.738,39.551
1688994312.808,27.832,17.578,27.832,24.414,68.359
1688994312.812,26.367,15.137,26.367,30.273,47.363
1688994312.816,23.438,16.602,27.832,29.297,60.059
1688994312.819,28.809,10.742,27.344,22.461,57.129
1688994312.823,21.973,5.859,25.879,24.414,-14.160
1688994312.827,14.648,14.648,26.855,33.203,-60.059
1688994312.831,19.531,23.438,29.785,27.832,-30.762
1688994312.835,22.949,24.414,27.832,25.391,50.293
1688994312.839,20.996,23.926,23.926,27.344,111.816
1688994312.843,19.531,20.996,25.391,19.043,91.797
1688994312.847,17.090,20.996,24.902,17.090,37.109
1688994312.851,21.973,23.438,23.926,19.531,18.066
1688994312.855,23.926,25.879,23.438,31.250,23.438
1688994312.859,26.855,28.320,20.508,37.598,24.414
1688994312.862,26.855,30.762,17.578,21.484,34.180
1688994312.866,17.090,30.273,18.066,14.160,67.383
1688994312.870,16.602,26.855,14.160,16.113,69.336
1688994312.874,15.625,28.809,17.090,22.949,69.824
1688994312.878,10.742,29.297,19.531,28.809,92.773
1688994312.882,21.484,26.367,20.020,28.320,101.074
1688994312.886,18.555,22.949,26.367,26.855,55.664
1688994312.890,19.043,16.602,21.973,19.043,18.066
1688994312.894,33.203,19.043,18.066,31.738,28.320
1688994312.898,27.344,23.926,18.066,41.504,26.855
1688994312.901,25.391,27.832,11.719,37.109,4.395
1688994312.905,31.738,26.367,13.184,36.621,24.414
1688994312.909,37.598,18.555,20.996,30.273,79.590
1688994312.913,41.504,20.020,24.902,40.039,76.660
1688994312.917,30.762,22.461,25.879,48.340,49.316
1688994312.921,22.461,22.461,25.879,39.551,34.180
1688994312.925,32.227,25.391,27.344,37.109,38.574
1688994312.929,38.086,24.902,32.227,41.992,2.930
1688994312.933,30.273,23.926,36.621,38.574,6.348
1688994312.937,33.691,23.438,33.203,27.344,3.906
1688994312.941,33.691,20.508,32.715,28.320,-1.465
1688994312.944,26.855,19.531,28.320,29.785,-16.602
1688994312.948,25.391,19.043,29.297,24.414,-57.617
1688994312.952,27.344,17.578,34.180,22.949,-0.488
1688994312.956,28.809,19.043,33.203,32.715,47.363
1688994312.960,21.973,17.090,28.809,35.645,55.664
1688994312.964,16.602,12.207,23.926,24.902,73.242
1688994312.968,6.836,17.578,15.625,9.766,12.207
1688994312.972,2.441,20.020,7.324,8.301,45.410
1688994312.976,13.672,20.508,14.160,23.438,54.688
1688994312.980,14.648,25.391,15.137,21.484,20.996
1688994312.983,15.137,21.484,9.766,13.184,62.500
1688994312.987,26.367,16.602,13.672,12.695,38.574
1688994312.991,12.207,15.137,13.672,12.207,61.523
1688994312.995,6.836,17.578,15.625,20.996,87.402
1688994312.999,24.414,26.367,17.578,21.484,19.531
1688994313.003,6.836,32.227,15.137,8.301,-10.254
1688994313.007,-1.465,30.762,14.160,4.883,-20.020
1688994313.011,12.207,28.320,15.625,17.090,-16.602
1688994313.015,9.277,32.227,20.020,12.207,29.297
1688994313.019,8.301,35.156,22.461,0.977,61.035
1688994313.023,9.277,36.133,27.344,6.836,19.531
1688994313.026,4.883,32.227,36.621,18.066,2.930
1688994313.030,13.184,20.508,38.086,21.973,46.875
1688994313.034,34.668,8.301,41.504,44.434,26.367
1688994313.038,45.410,13.672,47.363,66.895,-30.273
1688994313.042,27.344,33.691,32.715,37.598,-19.043
1688994313.046,-3.418,34.180,22.949,-10.254,7.812
1688994313.050,-13.184,27.344,28.809,-17.090,50.293
1688994313.054,-0.488,35.156,28.320,5.371,18.555
1688994313.058,14.648,35.645,29.785,11.719,-39.551
1688994313.062,14.160,31.738,35.156,10.742,14.648
1688994313.066,8.301,42.480,32.715,0.488,34.668
1688994313.069,10.742,44.922,26.367,3.906,-11.230
1688994313.073,27.344,41.504,20.020,15.137,20.020
1688994313.077,27.344,42.480,15.625,11.719,56.641
1688994313.081,18.555,40.039,11.230,2.441,31.738
1688994313.085,19.043,40.527,9.766,-8.301,56.641
1688994313.089,18.066,41.016,4.395,-7.812,54.688
1688994313.093,27.344,33.691,2.441,11.230,15.137
1688994313.097,34.668,36.133,2.930,11.719,-8.789
1688994313.101,33.691,36.621,8.301,15.137,8.301
1688994313.105,33.691,27.832,18.066,21.973,-0.977
1688994313.108,39.551,34.180,10.254,5.859,30.762
1688994313.112,44.922,31.250,8.789,18.555,85.449
1688994313.116,32.715,15.625,20.996,35.645,20.020
1688994313.120,28.320,22.949,20.020,32.227,1.953
1688994313.124,46.387,27.344,13.672,30.273,24.414
1688994313.128,46.875,26.367,15.137,23.926,30.762
1688994313.132,34.668,30.273,16.602,19.531,28.320
1688994313.136,36.133,25.879,18.066,31.250,47.363
1688994313.140,21.973,24.414,18.555,28.809,63.477
1688994313.144,8.789,28.809,21.973,18.555,24.902
1688994313.148,15.137,25.879,22.461,15.625,27.344
1688994313.151,18.555,20.508,26.367,19.043,24.414
1688994313.155,16.602,20.020,32.715,26.855,24.414
1688994313.159,28.809,19.531,31.250,24.902,48.340
1688994313.163,27.344,24.902,31.738,17.578,-13.672
1688994313.167,10.742,28.320,32.227,9.766,0.000
1688994313.171,17.090,23.438,31.738,14.160,69.336
1688994313.175,31.250,22.949,26.855,33.203,62.500
1688994313.179,37.109,22.461,21.484,28.809,38.086
1688994313.183,33.691,28.320,23.926,25.879,35.645
1688994313.187,34.180,35.645,31.738,37.109,71.777
1688994313.191,43.945,37.109,29.297,34.180,40.039
1688994313.194,59.082,37.598,22.949,40.039,27.832
1688994313.198,57.129,33.691,20.996,47.363,-28.320
1688994313.202,38.574,27.344,20.508,37.598,-47.852
1688994313.206,24.902,32.715,21.484,32.715,40.527
1688994313.210,28.809,33.691,18.555,44.434,96.191
1688994313.214,32.715,32.715,20.508,51.270,115.234
1688994313.218,23.926,34.180,29.297,43.457,86.426
1688994313.222,22.461,31.250,31.250,36.133,20.508
1688994313.226,32.227,31.250,29.785,34.180,6.348
1688994313.230,39.551,32.227,24.902,38.574,34.180
1688994313.233,32.227,31.738,27.344,32.227,-0.977
1688994313.237,25.879,34.180,34.668,33.203,11.230
1688994313.241,30.273,33.691,33.203,28.809,39.062
1688994313.245,21.973,34.180,33.203,21.484,68.359
1688994313.249,21.484,34.180,32.715,30.273,89.844
1688994313.253,35.645,30.273,35.645,43.457,55.664
1688994313.257,37.598,32.227,38.574,42.480,51.270
1688994313.261,39.062,33.691,36.133,34.180,6.348
1688994313.265,42.969,31.738,36.621,30.273,14.160
1688994313.269,38.086,33.691,38.086,33.203,14.648
1688994313.273,41.504,36.133,34.180,52.246,-4.883
1688994313.276,46.875,35.156,28.809,48.340,12.207
1688994313.280,46.875,33.691,29.785,38.086,24.902
1688994313.284,42.969,36.621,32.227,41.992,84.473
1688994313.288,46.875,34.668,31.738,37.598,-1.465
1688994313.292,44.434,28.809,35.156,47.852,-19.043
1688994313.296,42.969,30.273,35.156,53.711,47.363
1688994313.300,47.363,36.133,35.156,45.410,53.711
1688994313.304,34.180,36.133,37.109,28.809,26.855
1688994313.308,25.879,33.691,44.922,22.461,18.066
1688994313.312,41.016,35.156,47.363,35.156,-9.277
1688994313.315,46.387,37.598,38.574,40.039,-6.348
1688994313.319,26.367,41.504,38.086,32.227,62.012
1688994313.323,23.926,43.457,37.109,25.391,75.195
1688994313.327,22.949,37.109,34.180,19.043,79.590
1688994313.331,19.043,34.668,32.715,21.484,67.871
1688994313.335,29.297,41.016,28.809,28.320,41.016
1688994313.339,29.785,44.434,32.227,35.156,26.367
1688994313.343,24.902,45.410,33.691,30.762,26.855
1688994313.347,30.273,40.527,37.109,35.645,37.598
1688994313.351,25.879,34.668,44.434,52.246,33.203
1688994313.355,24.902,34.180,39.551,39.551,40.527
1688994313.358,27.344,32.227,41.992,34.668,36.621
1688994313.362,23.926,31.250,43.457,32.715,49.805
1688994313.366,19.531,28.809,32.715,15.625,33.203
1688994313.370,16.602,27.832,31.250,18.555,-36.621
1688994313.374,24.902,29.785,35.156,28.320,-13.184
1688994313.378,21.973,37.598,31.738,41.016,67.383
1688994313.382,12.207,35.156,28.809,22.461,65.918
1688994313.386,20.020,27.832,26.855,7.324,29.297
1688994313.390,23.926,32.715,27.344,25.879,31.738
1688994313.394,30.273,36.133,32.227,35.156,28.320
1688994313.398,35.156,33.691,33.691,34.668,-12.695
1688994313.401,29.785,30.762,40.039,30.762,-16.602
1688994313.405,25.391,26.855,48.828,29.297,31.738
1688994313.409,39.062,26.855,51.270,33.203,88.867
1688994313.413,49.805,26.367,47.852,37.109,32.715
1688994313.417,37.598,21.973,51.270,45.410,-17.578
1688994313.421,26.367,29.785,55.176,42.480,0.977
1688994313.425,32.715,36.621,55.176,35.645,42.969
1688994313.429,38.574,38.086,55.176,38.574,61.035
1688994313.433,51.270,36.133,56.641,39.062,43.457
1688994313.437,44.434,27.832,55.664,34.180,27.344
1688994313.440,43.945,23.438,41.504,29.297,-18.555
1688994313.444,51.758,21.484,40.039,36.621,23.438
1688994313.448,12.207,16.602,52.246,23.926,103.027
1688994313.452,-6.836,16.602,50.781,21.484,19.531
1688994313.456,25.879,17.578,45.410,45.898,-62.012
1688994313.460,26.367,21.973,45.410,47.363,42.480
1688994313.464,13.184,22.949,43.457,31.250,87.891
1688994313.468,18.555,24.902,39.062,22.949,62.500
1688994313.472,15.137,29.297,37.598,28.320,37.598
1688994313.476,13.184,23.926,37.109,41.016,34.180
1688994313.480,19.043,25.391,37.109,44.922,62.500
1688994313.483,17.578,24.902,35.156,37.598,12.695
1688994313.487,15.625,20.508,35.156,31.250,-19.043
1688994313.491,27.832,26.367,34.668,31.738,21.973
1688994313.495,31.250,27.344,35.156,43.945,31.738
1688994313.499,36.133,30.273,38.086,39.062,47.852
1688994313.503,41.016,31.738,35.645,28.809,33.691
1688994313.507,43.945,28.809,35.645,23.438,-6.836
1688994313.511,48.828,24.414,37.109,26.367,3.418
1688994313.515,38.574,23.926,37.109,37.598,36.621
1688994313.519,40.527,28.320,35.645,30.762,44.922
1688994313.523,40.527,24.902,35.156,24.902,26.855
1688994313.526,38.086,21.484,36.621,25.391,33.691
1688994313.530,40.527,28.320,32.227,31.250,49.805
1688994313.534,31.738,33.691,24.902,33.203,45.410
1688994313.538,32.715,34.668,23.438,37.109,22.461
1688994313.542,34.180,34.180,27.832,37.109,7.324
1688994313.546,29.785,34.668,25.391,24.414,40.527
1688994313.550,21.973,28.809,25.391,38.086,41.992
1688994313.554,18.555,28.809,23.926,47.852,54.199
1688994313.558,16.602,25.879,23.438,39.551,36.133
1688994313.562,8.789,17.090,28.320,36.621,3.906
1688994313.565,2.930,15.625,25.879,27.832,33.203
1688994313.569,8.789,19.531,31.250,35.645,58.594
1688994313.573,15.625,26.855,38.086,34.180,46.875
1688994313.577,16.602,27.832,38.574,23.926,51.270
1688994313.581,11.719,25.879,37.598,25.879,37.109
1688994313.585,12.695,28.809,35.645,21.484,2.930
1688994313.589,18.555,34.668,34.180,20.508,-16.113
1688994313.593,28.809,39.551,32.715,31.250,-28.320
1688994313.597,34.668,38.086,30.762,36.133,27.832
1688994313.601,21.973,36.621,27.832,25.391,52.246
1688994313.605,16.602,35.156,26.367,22.949,4.883
1688994313.608,18.555,31.738,24.414,17.090,83.984
1688994313.612,18.066,27.832,17.090,15.625,92.285
1688994313.616,21.973,29.785,14.648,23.438,64.941
1688994313.620,27.344,30.273,20.996,19.531,63.477
1688994313.624,25.391,24.902,20.996,20.020,17.090
1688994313.628,13.184,33.691,13.184,25.879,-0.977
1688994313.632,19.043,40.527,15.137,26.367,7.812
1688994313.636,32.227,38.574,17.090,32.227,-5.859
1688994313.640,17.578,33.691,18.066,45.898,-51.758
1688994313.644,16.113,28.320,20.020,52.734,-24.414
1688994313.648,2.930,37.598,19.043,23.926,78.613
1688994313.651,-8.789,51.758,10.254,9.277,64.941
1688994313.655,6.348,53.223,8.789,27.344,10.254
1688994313.659,7.812,48.340,15.137,10.254,31.738
1688994313.663,10.742,47.852,11.719,9.277,53.711
1688994313.667,16.113,43.457,11.719,15.625,16.113
1688994313.671,23.926,37.109,19.043,19.043,-4.883
1688994313.675,39.551,38.086,24.414,29.785,6.348
1688994313.679,35.645,36.133,26.367,16.113,-37.598
1688994313.683,41.016,34.180,28.809,16.602,-54.199
1688994313.687,45.898,32.227,28.320,20.020,15.137
1688994313.690,41.992,27.832,20.996,22.461,25.391
1688994313.694,47.852,27.344,22.949,28.320,37.598
1688994313.698,44.922,28.809,24.414,22.949,54.199
1688994313.702,45.898,24.902,24.414,26.855,-3.418
1688994313.706,36.621,23.926,26.855,35.645,-20.020
1688994313.710,28.320,25.391,25.391,21.484,-26.367
1688994313.714,40.527,31.250,24.902,22.949,0.488
1688994313.718,34.180,32.715,29.785,29.297,15.137
1688994313.722,30.273,29.297,32.715,27.832,7.324
1688994313.726,33.691,29.297,31.250,25.879,15.137
1688994313.730,25.879,24.902,30.762,28.320,5.371
1688994313.733,19.531,22.461,34.180,35.156,-30.273
1688994313.737,14.160,19.043,34.180,39.551,1.465
1688994313.741,20.508,12.207,34.180,40.527,7.324
1688994313.745,27.344,16.602,29.785,37.109,15.625
1688994313.749,27.832,19.043,24.414,39.062,73.242
1688994313.753,30.762,23.438,25.879,46.875,51.270
1688994313.757,29.297,30.273,28.320,50.293,49.805
1688994313.761,28.809,28.320,29.785,43.945,66.895
1688994313.765,40.527,21.973,33.691,34.180,79.102
1688994313.769,41.992,21.973,33.691,24.902,41.992
1688994313.772,40.527,20.020,33.203,26.855,-12.207
1688994313.776,45.410,13.184,35.645,31.738,33.691
1688994313.780,41.504,18.555,33.203,20.020,17.090
1688994313.784,37.598,21.484,30.762,20.508,-43.945
1688994313.788,40.527,16.602,31.738,26.367,33.203
1688994313.792,38.574,8.301,28.320,20.020,21.973
1688994313.796,32.227,10.254,23.926,28.320,-42.480
1688994313.800,38.574,16.113,26.367,35.645,-10.254
1688994313.804,34.668,15.625,30.762,26.855,32.227
1688994313.808,22.949,15.625,32.227,28.809,60.547
1688994313.812,25.879,19.531,31.250,42.480,54.199
1688994313.815,31.738,22.461,25.879,42.969,41.992
1688994313.819,20.996,21.973,29.297,42.480,74.219
1688994313.823,20.020,20.508,31.250,34.180,61.035
1688994313.827,27.344,20.508,31.250,34.180,5.371
1688994313.831,23.926,22.461,35.156,43.945,3.906
1688994313.835,22.949,16.602,38.086,39.551,12.207
1688994313.839,19.043,16.113,36.621,43.945,-3.418
1688994313.843,22.461,16.113,37.109,40.039,37.598
1688994313.847,24.414,12.207,38.574,23.926,73.242
1688994313.851,21.484,14.160,39.551,31.738,59.570
1688994313.855,30.762,15.625,40.039,37.598,78.125
1688994313.858,29.785,17.090,34.180,34.668,95.215
1688994313.862,24.414,19.531,35.645,23.438,56.641
1688994313.866,24.902,20.996,38.086,12.695,48.828
1688994313.870,24.902,20.996,37.598,29.785,36.621
1688994313.874,23.438,26.367,37.109,34.180,34.180
1688994313.878,15.625,29.297,36.133,21.484,62.500
1688994313.882,17.578,26.855,34.668,14.160,37.109
1688994313.886,18.555,19.531,34.668,14.648,-2.930
1688994313.890,16.113,17.578,39.551,28.320,50.781
1688994313.894,18.555,20.996,43.457,23.926,60.059
1688994313.897,13.184,27.344,43.945,27.832,15.137
1688994313.901,14.648,32.227,39.062,28.320,35.156
1688994313.905,17.578,30.273,39.551,20.508,44.922
1688994313.909,20.996,30.762,35.645,25.391,20.996
1688994313.913,21.484,31.738,32.715,32.227,43.457
1688994313.917,14.648,28.320,28.809,32.227,34.180
1688994313.921,4.883,25.391,26.855,22.461,3.418
1688994313.925,1.465,22.949,29.785,12.207,29.297
1688994313.929,17.090,21.484,25.879,17.090,36.133
1688994313.933,20.020,23.438,23.438,24.414,37.598
1688994313.937,19.043,20.996,24.902,33.691,-13.184
1688994313.940,23.438,23.926,24.902,31.738,-63.477
1688994313.944,27.832,29.297,17.578,24.902,-32.715
1688994313.948,45.898,28.320,15.625,51.758,44.922
1688994313.952,48.340,35.156,27.344,57.129,85.938
1688994313.956,20.508,37.598,31.250,24.414,68.848
1688994313.960,20.508,36.621,28.809,20.996,75.195
1688994313.964,37.598,39.551,28.809,21.973,92.773
1688994313.968,26.855,48.340,21.484,15.625,79.102
1688994313.972,22.949,47.852,20.020,29.297,62.012
1688994313.976,31.250,36.621,22.949,32.227,12.207
1688994313.980,23.926,33.203,23.438,28.320,55.176
1688994313.983,16.602,24.902,24.414,29.785,58.594
1688994313.987,14.648,20.508,20.996,26.855,-3.418
1688994313.991,12.207,32.715,13.672,25.391,69.824
1688994313.995,7.812,33.691,10.742,25.391,28.809
1688994313.999,2.441,27.832,15.137,24.414,8.789
1688994314.003,-0.488,30.273,12.695,17.578,27.344
1688994314.007,-2.930,27.344,17.578,5.371,18.555
1688994314.011,11.230,27.344,22.461,7.812,64.941
1688994314.015,21.484,33.203,19.043,26.367,100.586
1688994314.019,13.184,31.738,17.578,24.414,67.383
1688994314.022,23.438,23.926,19.531,9.766,17.090
1688994314.026,25.391,25.879,19.531,15.625,43.945
1688994314.030,26.367,32.227,15.137,19.043,58.594
1688994314.034,35.156,34.180,19.043,22.461,14.648
1688994314.038,33.203,27.344,24.902,31.738,45.898
1688994314.042,25.391,26.855,31.738,28.320,71.777
1688994314.046,26.367,28.809,36.133,28.809,44.434
1688994314.050,37.598,28.809,31.738,28.320,22.461
1688994314.054,33.203,33.691,29.785,28.809,30.762
1688994314.058,17.578,38.086,24.902,35.156,81.543
1688994314.062,18.555,36.621,21.973,33.691,8.301
1688994314.065,26.855,30.273,20.996,29.297,-7.812
1688994314.069,16.602,28.809,20.508,28.320,-18.066
1688994314.073,19.043,27.832,21.973,36.621,-44.434
1688994314.077,26.367,27.832,26.367,39.551,0.000
1688994314.081,19.043,35.156,27.344,30.762,22.461
1688994314.085,8.789,32.227,25.391,24.414,20.020
1688994314.089,12.695,22.949,29.297,22.461,-10.742
1688994314.093,21.484,21.973,32.227,17.578,-29.785
1688994314.097,12.207,22.949,23.926,18.066,21.973
1688994314.101,8.789,25.391,26.367,19.531,39.062
1688994314.104,13.672,22.461,36.621,15.625,41.992
1688994314.108,21.973,19.043,35.156,18.066,39.551
1688994314.112,28.320,20.508,33.203,22.461,13.672
1688994314.116,27.832,15.137,34.180,19.531,11.230
1688994314.120,19.531,15.137,31.738,18.555,51.270
1688994314.124,19.531,20.996,31.738,21.484,66.895
1688994314.128,21.973,16.113,33.203,16.113,18.066
1688994314.132,34.180,12.207,32.227,21.973,18.066
1688994314.136,37.109,18.555,39.551,28.320,20.508
1688994314.140,29.785,23.926,44.434,25.879,23.438
1688994314.144,28.809,30.762,41.992,21.973,72.266
1688994314.147,34.668,35.156,38.086,17.090,71.289
1688994314.151,37.109,36.621,39.551,22.461,55.176
1688994314.155,44.434,35.156,40.527,29.297,50.781
1688994314.159,43.457,30.762,39.551,25.391,12.695
1688994314.163,30.273,30.273,38.086,25.391,-11.719
1688994314.167,29.297,22.461,37.598,25.879,12.207
1688994314.171,31.738,18.555,36.133,21.973,31.738
1688994314.175,34.180,23.438,33.691,30.762,17.090
1688994314.179,36.621,29.297,31.250,29.297,4.883
1688994314.183,27.344,24.414,24.902,26.367,35.156
1688994314.187,9.277,17.090,23.926,18.555,108.398
1688994314.190,7.812,17.578,27.344,8.789,16.602
1688994314.194,11.719,17.578,31.738,19.531,-68.359
1688994314.198,13.672,15.137,28.320,20.020,-8.301
1688994314.202,9.277,20.020,27.344,22.461,-4.883
1688994314.206,6.348,23.926,27.832,12.695,49.316
1688994314.210,14.648,17.090,27.832,16.113,69.824
1688994314.214,21.973,19.531,29.785,26.855,66.406
1688994314.218,24.414,18.555,28.809,27.832,78.613
1688994314.222,23.926,20.020,21.484,20.996,32.227
1688994314.226,9.766,23.438,19.531,11.230,49.316
1688994314.229,8.789,25.391,25.391,13.672,83.984
1688994314.233,20.996,30.273,24.902,25.391,34.668
1688994314.237,17.090,32.227,27.832,34.668,4.883
1688994314.241,14.648,24.414,34.668,25.391,48.828
1688994314.245,16.602,15.137,42.969,16.113,70.801
1688994314.249,18.066,20.996,40.527,22.461,85.938
1688994314.253,22.949,23.438,32.715,32.715,52.246
1688994314.257,21.973,21.973,38.086,26.855,20.996
1688994314.261,20.020,26.367,38.574,21.973,45.898
1688994314.265,17.578,26.367,35.645,13.184,34.180
1688994314.269,19.531,24.902,34.180,7.324,7.812
1688994314.272,22.461,24.414,27.832,15.137,11.719
1688994314.276,18.555,18.555,23.926,25.879,43.945
1688994314.280,16.602,16.113,27.832,22.461,17.090
1688994314.284,12.207,20.020,26.367,14.648,-8.789
1688994314.288,13.184,23.438,23.438,17.090,17.578
1688994314.292,20.508,25.879,25.879,30.273,26.367
1688994314.296,19.531,26.855,21.973,29.297,31.738
1688994314.300,21.484,26.855,20.508,30.273,32.227
1688994314.304,23.438,27.832,23.926,19.531,-4.883
1688994314.308,23.926,32.227,19.043,20.508,15.137
1688994314.312,29.785,33.203,13.672,30.762,60.547
1688994314.315,25.391,26.367,18.555,29.785,45.410
1688994314.319,18.066,27.344,18.066,36.621,30.762
1688994314.323,22.949,23.438,19.531,25.391,34.180
1688994314.327,24.414,18.555,22.461,16.113,23.926
1688994314.331,24.414,17.578,20.020,27.832,-4.395
1688994314.335,30.762,13.184,23.438,39.551,14.160
1688994314.339,33.691,18.066,21.973,35.156,47.852
1688994314.343,16.602,18.066,21.973,17.578,-26.367
1688994314.347,14.648,3.418,25.879,17.090,-27.344
1688994314.351,29.785,6.836,27.832,28.809,13.184
1688994314.354,22.461,21.973,26.855,35.645,50.293
1688994314.358,15.137,29.785,24.902,30.762,38.574
1688994314.362,12.207,34.180,30.273,25.879,21.973
1688994314.366,20.508,38.086,34.180,35.156,33.691
1688994314.370,33.203,38.574,33.691,40.039,6.836
1688994314.374,33.691,36.133,28.809,38.086,-7.812
1688994314.378,29.785,33.691,21.484,34.180,46.875
1688994314.382,33.691,32.715,23.926,23.438,101.562
1688994314.386,45.898,31.738,34.180,15.137,29.297
1688994314.390,38.574,24.414,35.645,19.531,65.430
1688994314.394,37.109,19.531,33.203,26.855,75.684
1688994314.397,39.551,15.625,31.250,27.832,22.949
1688994314.401,25.879,13.184,27.832,33.691,33.203
1688994314.405,30.273,19.043,23.926,34.180,-16.113
1688994314.409,44.922,19.531,22.461,31.738,-29.297
1688994314.413,50.781,15.137,26.855,42.480,-44.434
1688994314.417,43.945,17.578,23.438,58.594,-74.707
1688994314.421,30.762,25.391,18.555,47.363,-70.801
1688994314.425,24.902,29.297,26.367,32.227,-43.457
1688994314.429,30.273,34.180,27.832,44.434,20.996
1688994314.433,32.715,37.109,27.344,40.527,13.672
1688994314.436,34.180,34.180,31.250,38.086,-20.020
1688994314.440,37.109,31.738,37.109,44.922,43.457
1688994314.444,37.109,32.715,43.457,43.457,52.246
1688994314.448,35.156,32.715,46.387,44.434,15.625
1688994314.452,22.461,33.203,49.805,50.293,29.297
1688994314.456,22.949,35.156,53.711,55.664,-1.465
1688994314.460,28.320,28.809,60.059,51.758,23.926
1688994314.464,22.461,22.949,64.941,49.316,53.223
1688994314.468,21.484,26.367,59.570,52.734,56.641
1688994314.472,24.414,29.785,62.988,50.781,58.105
1688994314.476,16.602,30.762,71.289,62.500,48.340
1688994314.479,17.578,32.715,68.359,55.176,68.848
1688994314.483,27.344,35.645,72.754,41.504,33.691
1688994314.487,28.320,41.016,67.871,39.062,5.371
1688994314.491,29.785,43.945,55.664,41.504,25.391
1688994314.495,32.715,42.480,54.199,47.852,29.297
1688994314.499,32.715,43.945,54.688,41.016,56.152
1688994314.503,33.691,43.945,60.059,36.621,79.590
1688994314.507,31.738,39.551,61.035,35.156,56.152
1688994314.511,30.273,37.598,59.082,33.691,28.320
1688994314.515,26.367,38.574,62.988,39.062,52.734
1688994314.519,25.879,42.480,63.477,36.133,69.824
1688994314.522,16.113,41.504,60.059,25.879,104.492
1688994314.526,17.578,33.203,58.594,28.320,39.062
1688994314.530,30.762,33.691,55.664,44.922,24.414
1688994314.534,32.715,35.645,56.641,49.316,85.938
1688994314.538,26.855,35.156,57.617,41.016,39.551
1688994314.542,21.973,36.133,58.105,30.762,35.156
1688994314.546,20.996,41.016,56.641,34.180,38.574
1688994314.550,37.598,46.875,64.941,41.504,59.570
1688994314.554,39.551,53.711,71.777,49.805,101.562
1688994314.558,42.480,54.688,70.312,52.246,80.078
1688994314.561,49.805,52.246,81.543,40.039,13.184
1688994314.565,40.039,53.223,79.590,37.598,20.020
1688994314.569,32.227,52.734,79.590,41.504,48.340
1688994314.573,38.086,51.758,78.613,49.805,74.707
1688994314.577,27.832,49.805,81.055,43.457,42.969
1688994314.581,15.137,51.758,81.543,29.785,-10.254
1688994314.585,17.578,50.293,74.219,29.297,6.836
1688994314.589,24.902,49.316,72.754,41.016,25.391
1688994314.593,24.414,53.711,69.336,44.434,47.363
1688994314.597,17.090,45.410,69.336,39.062,18.066
1688994314.601,17.090,34.180,72.754,41.992,4.395
1688994314.604,2.930,37.598,72.754,44.922,3.906
1688994314.608,-4.395,38.574,70.312,27.344,41.504
1688994314.612,8.789,37.109,67.871,31.738,29.297
1688994314.616,6.836,36.621,69.336,41.992,-38.086
1688994314.620,0.977,32.227,63.965,33.203,12.207
1688994314.624,8.789,28.320,62.988,23.438,38.574
1688994314.628,10.742,31.250,69.824,27.832,6.348
1688994314.632,15.625,39.062,61.035,40.527,0.977
1688994314.636,17.578,44.434,55.664,43.457,-4.395
1688994314.640,6.348,42.969,55.176,32.227,45.898
1688994314.644,7.324,42.480,53.711,17.090,66.895
1688994314.647,10.254,47.363,54.688,15.625,-8.301
1688994314.651,5.371,47.363,47.363,28.320,42.969
1688994314.655,16.602,40.527,43.945,25.391,76.660
1688994314.659,26.367,39.062,49.805,18.066,30.762
1688994314.663,13.184,35.156,49.316,26.855,0.488
1688994314.667,11.230,33.691,49.316,22.949,-29.297
1688994314.671,26.855,43.457,46.875,31.250,-43.457
1688994314.675,26.367,46.875,42.480,31.250,-39.551
1688994314.679,22.461,47.363,42.969,23.926,41.504
1688994314.683,25.391,45.410,42.969,24.414,106.934
1688994314.686,21.973,37.109,41.016,18.066,44.922
1688994314.690,18.555,29.297,44.434,31.738,-7.812
1688994314.694,28.320,30.273,44.434,39.062,-8.301
1688994314.698,24.414,35.645,44.922,22.461,19.043
1688994314.702,17.578,38.086,43.457,15.625,31.250
1688994314.706,36.621,39.551,39.062,33.203,55.664
1688994314.710,35.645,46.387,44.922,48.340,79.590
1688994314.714,20.020,51.270,44.434,29.297,53.223
1688994314.718,13.184,52.246,41.504,17.578,57.617
1688994314.722,9.277,45.898,41.992,14.648,42.480
1688994314.726,12.695,47.852,47.852,12.207,14.160
1688994314.729,19.043,52.734,46.387,18.555,15.625
1688994314.733,23.926,53.711,31.738,31.250,16.113
1688994314.737,23.926,53.223,27.344,35.645,50.293
1688994314.741,21.484,48.828,26.367,29.297,8.789
1688994314.745,35.156,46.875,26.855,23.438,18.066
1688994314.749,44.434,51.758,30.273,36.133,17.578
1688994314.753,31.250,49.805,31.250,43.457,-7.324
1688994314.757,24.902,45.898,32.715,43.457,41.016
1688994314.761,27.344,46.387,30.762,36.133,59.082
1688994314.765,28.320,43.945,25.879,25.879,47.852
1688994314.769,30.273,44.434,25.391,32.227,48.340
1688994314.772,32.227,44.434,26.367,39.062,61.035
1688994314.776,44.922,37.109,23.926,34.180,15.625
1688994314.780,42.969,38.086,24.902,29.297,9.766
1688994314.784,31.250,41.992,23.438,24.414,22.949
1688994314.788,38.574,42.480,21.973,24.414,28.809
1688994314.792,40.039,39.551,24.414,25.879,36.133
1688994314.796,38.086,31.738,25.879,29.297,59.082
1688994314.800,36.621,27.344,27.344,24.902,66.895
1688994314.804,26.367,28.809,25.879,15.625,21.484
1688994314.808,20.996,27.344,27.832,26.367,54.688
1688994314.811,24.902,28.320,32.227,34.668,65.918
1688994314.815,28.320,31.250,27.832,31.738,8.789
1688994314.819,27.832,27.832,26.367,31.738,25.391
1688994314.823,17.578,26.367,24.902,26.367,32.715
1688994314.827,17.578,22.949,24.902,33.691,-0.977
1688994314.831,34.668,20.508,24.414,34.668,61.035
1688994314.835,27.344,20.996,33.203,35.645,90.332
1688994314.839,20.020,20.996,40.527,42.969,57.617
1688994314.843,22.461,15.137,41.016,29.785,76.660
1688994314.847,18.555,15.625,43.945,21.484,62.012
1688994314.851,18.555,29.297,40.527,44.922,57.617
1688994314.854,24.902,27.832,38.574,45.898,21.484
1688994314.858,35.156,22.949,36.133,35.645,-60.059
1688994314.862,32.227,26.367,35.645,35.156,-13.184
1688994314.866,29.785,23.926,39.062,34.668,56.152
1688994314.870,19.043,19.043,34.668,38.574,46.387
1688994314.874,22.949,14.648,25.391,41.504,34.668
1688994314.878,28.320,8.301,28.320,20.020,27.832
1688994314.882,18.066,5.859,32.715,6.348,21.484
1688994314.886,19.531,6.836,29.785,11.719,19.531
1688994314.890,31.250,3.906,27.832,18.066,90.820
1688994314.893,30.762,3.906,26.367,21.484,62.012
1688994314.897,18.555,11.719,29.297,22.461,11.719
1688994314.901,3.418,14.160,34.668,16.602,16.602
1688994314.905,2.930,11.230,29.297,13.184,-7.812
1688994314.909,10.742,6.836,27.832,19.043,47.852
1688994314.913,9.277,3.906,32.227,23.926,36.133
1688994314.917,1.465,4.883,32.227,24.414,10.254
1688994314.921,-0.977,2.441,34.180,14.648,24.902
1688994314.925,4.395,1.465,35.645,4.883,-23.926
1688994314.929,3.418,4.395,30.762,9.766,-0.488
1688994314.933,11.230,7.812,28.320,26.855,-2.441
1688994314.936,19.043,10.254,34.180,23.438,-1.465
1688994314.940,-9.766,12.207,34.668,13.672,35.645
1688994314.944,-14.648,9.277,26.367,14.160,83.984
1688994314.948,4.883,7.324,16.602,16.113,15.625
1688994314.952,18.066,11.719,19.043,24.414,-4.883
1688994314.956,21.484,13.184,26.367,20.020,-25.879
1688994314.960,14.648,10.742,24.902,16.113,-5.859
1688994314.964,16.602,6.836,29.297,19.043,60.059
1688994314.968,30.273,11.230,27.344,25.879,39.551
1688994314.972,40.527,16.113,24.902,39.551,20.020
1688994314.976,42.969,17.578,26.855,37.598,-22.949
1688994314.979,50.293,22.461,29.785,32.715,-61.523
1688994314.983,45.410,20.020,33.691,30.273,-41.016
1688994314.987,42.969,21.484,35.645,36.133,24.414
1688994314.991,61.035,29.785,36.133,48.340,20.020
1688994314.995,67.871,36.621,35.156,47.852,10.742
1688994314.999,53.711,38.574,39.062,37.598,31.738
1688994315.003,51.270,35.645,40.527,29.785,17.090
1688994315.007,55.176,33.691,39.062,32.715,49.805
1688994315.011,49.316,36.133,34.180,42.969,31.250
1688994315.015,42.480,41.992,40.527,56.641,49.316
1688994315.018,45.410,42.969,48.340,52.734,84.473
1688994315.022,53.223,41.504,47.852,43.457,38.574
1688994315.026,49.805,34.668,43.457,35.645,50.781
1688994315.030,36.621,37.109,36.133,31.738,71.289
1688994315.034,30.762,39.551,36.621,35.156,27.344
1688994315.038,22.949,24.902,39.062,27.344,31.738
1688994315.042,15.625,10.254,38.574,26.855,84.473
1688994315.046,18.066,12.695,34.668,32.715,44.434
1688994315.050,12.695,16.602,33.691,33.691,-26.367
1688994315.054,17.578,14.648,26.855,41.504,-10.742
1688994315.058,25.879,13.184,24.414,50.293,28.320
1688994315.061,15.625,12.207,33.203,38.574,36.621
1688994315.065,12.207,9.766,33.203,23.926,28.320
1688994315.069,13.672,7.324,33.691,36.133,52.246
1688994315.073,33.691,8.789,35.645,50.293,46.875
1688994315.077,20.996,9.277,36.621,33.691,-50.781
1688994315.081,-13.184,11.719,32.227,34.668,-27.344
1688994315.085,0.488,13.672,30.273,50.293,27.344
1688994315.089,14.160,12.695,32.715,20.508,26.855
1688994315.093,25.879,13.184,36.133,23.926,50.293
1688994315.097,18.555,18.066,44.434,34.668,-4.395
1688994315.101,5.371,26.855,38.574,3.418,6.836
1688994315.104,16.602,26.367,35.645,11.230,55.664
1688994315.108,22.461,20.508,41.016,29.297,45.898
1688994315.112,35.645,21.484,40.039,37.109,-22.461
1688994315.116,39.551,26.367,41.992,48.340,-6.836
1688994315.120,27.832,31.250,43.945,33.203,60.547
1688994315.124,30.273,28.320,42.969,20.508,33.691
1688994315.128,18.555,26.855,48.340,22.461,69.824
1688994315.132,9.277,31.738,56.641,25.391,65.918
1688994315.136,17.090,41.992,56.641,21.973,3.906
1688994315.140,10.254,41.016,53.711,22.461,60.547
1688994315.143,3.906,31.738,54.688,16.602,91.309
1688994315.147,18.555,29.785,54.688,21.484,70.312
1688994315.151,18.066,30.762,56.641,37.598,34.180
1688994315.155,16.602,27.344,55.664,34.668,3.906
1688994315.159,18.066,23.438,55.176,24.414,-0.977
1688994315.163,22.461,19.043,60.059,25.391,19.043
1688994315.167,25.879,17.578,65.918,26.855,22.949
1688994315.171,16.602,18.066,64.453,29.785,6.348
1688994315.175,18.066,14.648,61.523,38.574,13.672
1688994315.179,22.461,18.066,64.453,47.363,16.602
1688994315.183,34.668,20.020,69.824,47.852,41.504
1688994315.186,37.109,16.602,66.895,40.527,61.523
1688994315.190,31.250,22.949,53.223,32.227,16.602
1688994315.194,39.062,29.297,51.270,30.273,-8.301
1688994315.198,37.598,25.391,62.988,19.531,40.527
1688994315.202,41.992,18.066,62.500,11.719,50.781
1688994315.206,45.410,13.184,63.477,26.367,-8.301
1688994315.210,53.711,17.090,66.895,35.156,-17.090
1688994315.214,57.617,18.555,63.965,38.086,0.000
1688994315.218,60.059,18.555,60.059,35.156,37.109
1688994315.222,47.363,23.438,56.641,22.949,54.199
1688994315.225,40.527,28.320,60.059,21.484,39.551
1688994315.229,43.945,30.273,62.012,35.645,38.574
1688994315.233,38.574,25.879,58.594,45.410,53.223
1688994315.237,36.621,27.832,57.129,36.621,41.992
1688994315.241,36.621,31.738,48.340,37.109,35.156
1688994315.245,37.598,30.273,47.363,41.992,4.883
1688994315.249,44.922,30.762,51.758,47.852,-43.945
1688994315.253,44.434,31.250,44.922,57.129,31.250
1688994315.257,41.016,20.996,49.316,60.547,22.461
1688994315.261,36.621,12.695,54.688,53.711,-5.371
1688994315.265,40.039,12.695,47.852,51.758,49.316
1688994315.268,45.410,5.859,60.059,55.176,48.828
1688994315.272,40.527,4.883,56.641,50.781,49.805
1688994315.276,38.086,6.348,48.340,61.523,49.805
1688994315.280,35.156,4.883,51.758,51.270,32.715
1688994315.284,42.480,12.207,44.434,36.621,18.555
1688994315.288,46.875,17.578,44.434,47.363,11.230
1688994315.292,32.227,14.648,52.246,53.711,77.637
1688994315.296,31.738,11.230,42.969,47.852,60.547
1688994315.300,24.414,13.184,30.273,48.340,38.574
1688994315.304,19.531,17.090,30.273,24.414,102.539
1688994315.308,16.113,19.531,34.668,11.719,83.008
1688994315.311,17.578,27.832,28.809,25.879,42.969
1688994315.315,19.043,35.156,26.367,32.227,13.672
1688994315.319,7.324,37.109,33.203,31.250,20.508
1688994315.323,17.578,37.109,31.250,26.855,81.055
1688994315.327,23.926,31.250,31.738,31.738,100.098
1688994315.331,22.461,30.762,37.598,43.945,-9.277
1688994315.335,24.902,29.297,37.109,53.223,-20.508
1688994315.339,15.625,23.926,40.527,39.551,56.641
1688994315.343,6.836,21.484,40.039,21.973,45.898
1688994315.347,21.484,19.043,35.645,35.645,26.855
1688994315.350,40.527,20.508,35.645,47.363,35.645
1688994315.354,24.414,19.531,35.156,44.434,16.602
1688994315.358,19.531,18.555,33.203,31.738,-14.648
1688994315.362,25.879,20.996,37.598,38.086,22.461
1688994315.366,25.879,19.531,41.992,49.316,34.668
1688994315.370,24.414,21.973,39.062,52.734,8.301
1688994315.374,35.156,20.996,38.086,45.410,39.551
1688994315.378,31.738,18.066,35.156,35.156,48.340
1688994315.382,21.973,19.531,30.273,25.879,41.504
1688994315.386,26.367,16.602,32.227,29.785,-7.324
1688994315.390,30.762,21.484,27.832,43.945,-23.438
1688994315.393,38.574,25.391,37.598,39.551,24.902
1688994315.397,35.645,19.531,57.617,35.645,28.320
1688994315.401,34.668,12.695,47.363,39.062,38.574
1688994315.405,26.855,5.859,44.434,35.156,19.531
1688994315.409,33.203,7.324,46.387,47.852,48.828
1688994315.413,44.922,9.766,41.992,61.523,53.711
1688994315.417,29.785,10.742,49.316,41.016,47.852
1688994315.421,29.297,9.277,50.293,23.438,89.844
1688994315.425,40.039,9.277,57.129,46.875,10.742
1688994315.429,28.809,10.742,46.387,56.152,26.855
1688994315.433,28.809,16.113,37.598,37.109,36.133
1688994315.436,39.062,15.625,44.434,41.504,-66.406
1688994315.440,35.156,11.719,50.293,32.227,-25.391
1688994315.444,29.785,16.602,49.805,36.621,38.574
1688994315.448,39.551,21.973,36.133,55.664,23.926
1688994315.452,42.480,18.555,39.062,50.781,52.734
1688994315.456,44.434,14.648,44.922,40.039,79.590
1688994315.460,42.969,16.602,39.062,38.086,76.172
1688994315.464,41.992,20.020,40.527,42.480,81.543
1688994315.468,43.457,19.043,40.039,44.434,18.066
1688994315.472,31.250,21.484,35.645,43.457,-26.367
1688994315.475,20.020,30.762,29.785,26.367,123.535
1688994315.479,16.113,34.668,27.344,11.719,149.414
1688994315.483,21.973,31.738,30.273,15.625,93.262
1688994315.487,18.555,30.762,21.973,15.137,104.004
1688994315.491,29.297,24.414,23.438,23.926,13.672
1688994315.495,28.809,15.625,34.668,26.367,-17.090
1688994315.499,30.762,22.949,34.180,17.090,34.668
1688994315.503,41.992,27.832,34.180,17.090,28.320
1688994315.507,31.250,27.832,36.621,13.184,29.297
1688994315.511,10.254,26.855,40.039,21.973,32.227
1688994315.515,8.301,21.973,47.363,40.527,7.324
1688994315.518,34.668,28.809,49.805,43.457,65.430
1688994315.522,42.969,37.109,60.059,36.133,99.121
1688994315.526,32.227,34.668,60.547,28.320,68.848
1688994315.530,18.066,30.273,59.082,30.273,67.871
1688994315.534,16.602,34.668,59.082,51.758,76.172
1688994315.538,27.344,37.598,55.176,41.504,66.406
1688994315.542,36.133,34.668,56.152,33.691,26.855
1688994315.546,41.992,34.668,46.875,48.340,16.602
1688994315.550,42.969,32.715,48.828,46.875,39.551
1688994315.554,38.574,37.109,48.340,45.410,-7.812
1688994315.557,31.250,41.992,43.457,40.527,-11.230
1688994315.561,44.434,38.574,44.434,32.715,31.250
1688994315.565,45.898,38.574,44.434,38.086,20.508
1688994315.569,37.598,35.156,41.016,52.246,-12.207
1688994315.573,32.715,38.086,35.156,55.176,-14.648
1688994315.577,33.691,41.992,39.551,45.898,31.250
1688994315.581,30.273,39.062,38.086,37.598,-11.719
1688994315.585,20.996,41.504,26.367,32.715,-24.902
1688994315.589,21.484,39.551,23.438,37.598,9.766
1688994315.593,15.625,35.645,31.250,23.926,5.371
1688994315.597,20.508,39.551,31.250,12.207,29.297
1688994315.600,20.508,43.945,28.320,27.344,75.684
1688994315.604,11.719,39.551,32.227,4.883,82.520
1688994315.608,5.859,34.180,33.691,12.207,-5.371
1688994315.612,1.465,28.809,46.387,32.715,-17.090
1688994315.616,11.230,25.879,46.387,23.926,59.082
1688994315.620,18.066,24.414,34.180,28.320,31.738
1688994315.624,26.367,23.438,36.621,34.668,21.484
1688994315.628,23.926,22.949,43.945,40.527,59.570
1688994315.632,18.555,23.926,40.527,38.086,41.504
1688994315.636,24.414,28.809,40.039,37.109,43.945
1688994315.640,31.738,28.320,50.293,20.996,63.477
1688994315.643,40.527,32.227,43.945,15.625,62.012
1688994315.647,37.109,31.738,41.992,33.203,29.297
1688994315.651,32.227,24.902,51.758,45.410,64.941
1688994315.655,35.645,31.250,47.363,53.223,81.055
1688994315.659,33.691,32.715,45.898,49.805,40.527
1688994315.663,29.785,29.785,40.527,34.668,21.484
1688994315.667,45.898,32.715,33.691,35.645,16.113
1688994315.671,44.922,40.527,43.457,59.082,74.219
1688994315.675,-3.906,32.715,53.223,26.367,83.008
1688994315.679,-15.137,26.855,30.273,17.578,47.363
1688994315.682,10.742,33.203,20.996,44.434,37.598
1688994315.686,17.578,33.691,41.504,21.973,52.734
1688994315.690,23.438,37.109,45.410,20.996,1.953
1688994315.694,8.789,37.598,39.062,42.969,-14.160
1688994315.698,8.789,38.086,38.086,39.551,-2.441
1688994315.702,25.879,36.133,41.504,42.969,0.977
1688994315.706,27.832,31.250,43.457,46.875,48.340
1688994315.710,32.715,34.668,43.945,49.316,11.719
1688994315.714,38.574,35.156,40.527,47.363,-0.488
1688994315.718,34.668,35.645,51.270,47.852,55.664
1688994315.722,18.066,40.527,49.316,54.199,56.152
1688994315.725,25.391,41.016,27.832,44.922,2.930
1688994315.729,36.133,37.109,27.832,45.898,-24.414
1688994315.733,36.621,35.645,33.203,49.805,-1.465
1688994315.737,26.855,37.598,40.039,45.898,-14.648
1688994315.741,25.391,40.527,34.180,44.434,0.000
1688994315.745,38.086,33.691,38.086,36.621,17.090
1688994315.749,49.316,29.785,43.457,32.715,20.020
1688994315.753,38.086,31.250,46.387,35.156,11.719
1688994315.757,13.672,31.250,42.480,33.203,35.645
1688994315.761,11.230,31.250,36.133,23.926,6.348
1688994315.765,23.926,36.621,31.738,11.719,-86.426
1688994315.768,24.414,41.016,23.926,13.184,-13.672
1688994315.772,14.160,38.086,26.855,31.250,99.609
1688994315.776,8.789,36.133,26.855,25.879,73.242
1688994315.780,11.230,27.832,31.250,24.902,13.184
1688994315.784,14.160,23.438,36.621,27.344,57.617
1688994315.788,20.020,26.367,39.551,28.809,62.500
1688994315.792,36.133,36.133,43.457,45.410,23.926
1688994315.796,43.457,50.781,48.340,47.852,57.617
1688994315.800,26.367,41.016,54.688,38.086,46.875
1688994315.804,25.391,35.645,54.688,40.039,101.074
1688994315.807,35.156,41.016,52.246,37.598,157.715
1688994315.811,26.855,37.109,48.828,33.691,59.082
1688994315.815,19.043,44.434,43.457,30.273,22.949
1688994315.819,15.625,45.410,39.062,22.949,45.898
1688994315.823,10.254,37.109,36.621,18.555,32.227
1688994315.827,12.207,36.133,35.156,21.973,45.898
1688994315.831,24.902,42.480,35.156,30.273,56.152
1688994315.835,23.926,37.598,40.039,27.344,-8.301
1688994315.839,5.371,29.785,44.434,19.531,-73.242
1688994315.843,6.836,35.156,36.621,13.672,-40.527
1688994315.847,8.301,26.855,29.785,11.230,28.809
1688994315.850,11.719,20.508,30.762,19.043,52.246
1688994315.854,8.301,19.043,39.551,14.160,48.828
1688994315.858,3.906,24.902,34.180,12.695,83.496
1688994315.862,4.883,31.738,21.484,16.113,44.922
1688994315.866,13.184,32.227,21.484,27.832,38.574
1688994315.870,32.227,34.180,29.785,36.621,83.496
1688994315.874,33.691,34.668,31.738,22.949,38.086
1688994315.878,17.578,35.156,23.438,19.043,-14.648
1688994315.882,7.324,42.480,23.438,10.742,44.434
1688994315.886,17.090,43.945,23.438,14.648,78.613
1688994315.889,30.762,30.273,24.414,25.879,34.668
1688994315.893,32.227,28.809,27.832,34.180,13.184
1688994315.897,25.879,37.109,33.691,22.949,38.574
1688994315.901,16.113,34.180,38.574,3.906,37.598
1688994315.905,11.230,28.320,45.410,13.672,-26.367
1688994315.909,22.949,26.855,49.316,19.043,-62.988
1688994315.913,21.973,20.020,46.875,19.043,31.250
1688994315.917,14.648,18.555,40.527,10.254,57.129
1688994315.921,18.555,23.926,43.457,0.000,-15.137
1688994315.925,6.836,28.809,40.527,3.906,23.438
1688994315.929,4.883,30.273,32.227,7.324,66.406
1688994315.932,7.324,29.785,37.109,17.578,48.828
1688994315.936,0.977,35.156,46.387,17.090,69.336
1688994315.940,5.859,34.180,47.852,23.438,42.969
1688994315.944,10.254,30.273,33.691,18.066,0.488
1688994315.948,5.371,28.809,25.391,-2.930,4.395
1688994315.952,18.555,25.391,23.438,6.348,7.324
1688994315.956,26.367,25.391,21.484,22.461,-29.297
1688994315.960,15.137,31.250,14.648,15.625,20.020
1688994315.964,10.742,34.180,4.883,-5.859,64.453
1688994315.968,18.555,29.297,3.906,1.953,-16.113
1688994315.972,23.926,26.367,11.719,19.531,-14.648
1688994315.975,25.391,23.438,18.555,24.414,47.363
1688994315.979,26.367,18.066,23.438,24.414,49.316
1688994315.983,24.902,20.020,29.297,29.297,77.637
1688994315.987,21.973,21.484,28.809,41.992,82.520
1688994315.991,26.367,18.066,35.156,43.457,33.203
1688994315.995,33.203,14.648,28.320,35.645,0.977
1688994315.999,25.391,8.301,16.602,19.043,13.184
1688994316.003,20.996,3.906,16.113,10.254,54.688
1688994316.007,16.113,1.465,14.648,13.672,20.996
1688994316.011,10.254,4.883,15.625,22.461,-26.367
1688994316.014,11.719,4.883,11.230,24.902,21.484
1688994316.018,12.695,2.930,14.160,24.414,74.707
1688994316.022,12.695,7.324,17.578,23.438,29.785
1688994316.026,18.555,13.184,19.531,22.949,18.066
1688994316.030,16.113,12.695,28.809,35.156,5.859
1688994316.034,5.371,12.695,35.645,37.109,40.039
1688994316.038,9.766,17.090,35.645,22.949,55.176
1688994316.042,10.254,20.020,33.203,25.879,-12.695
1688994316.046,15.625,20.020,26.367,30.273,-25.391
1688994316.050,24.902,24.414,18.555,29.785,37.598
1688994316.054,28.320,28.320,16.602,30.762,62.988
1688994316.057,26.855,17.090,21.973,16.113,49.805
1688994316.061,27.344,18.066,18.555,8.789,71.289
1688994316.065,40.527,30.273,11.719,20.508,58.594
1688994316.069,36.621,30.762,14.648,29.785,47.363
1688994316.073,33.691,26.855,16.602,38.086,16.602
1688994316.077,45.410,25.391,15.137,40.527,-39.062
1688994316.081,43.457,24.902,16.113,30.762,-23.926
1688994316.085,46.387,22.949,19.531,40.527,44.434
1688994316.089,53.711,23.926,19.531,51.758,78.613
1688994316.093,42.969,28.809,21.484,47.852,85.449
1688994316.097,31.250,33.203,24.414,42.480,23.438
1688994316.100,31.250,36.133,20.996,38.574,-4.883
1688994316.104,38.086,29.785,28.320,42.969,39.551
1688994316.108,30.273,22.949,35.156,45.410,52.246
1688994316.112,16.113,25.391,33.203,34.180,9.277
1688994316.116,18.066,23.438,36.133,24.414,42.480
1688994316.120,14.648,19.043,37.598,12.207,2.441
1688994316.124,-5.859,15.137,33.203,20.508,-21.973
1688994316.128,-4.395,5.371,40.527,29.785,25.879
1688994316.132,4.883,5.371,34.180,28.809,3.906
1688994316.136,0.000,18.066,24.902,23.926,21.973
1688994316.139,2.930,28.320,27.832,14.160,27.832
1688994316.143,13.184,37.109,24.414,20.508,-12.207
