timestamps,TP9,AF7,AF8,TP10,Right AUX
1689934105.363,77.148,1.465,-17.578,16.602,10.742
1689934105.367,81.543,16.113,-24.414,-5.859,15.625
1689934105.370,77.148,15.625,-20.020,12.207,-31.738
1689934105.374,91.797,8.789,-13.184,73.730,-50.293
1689934105.378,101.074,11.230,-17.578,85.449,52.734
1689934105.382,75.684,13.672,-18.066,12.695,14.648
1689934105.386,70.801,13.184,-15.137,-18.555,-3.418
1689934105.390,79.590,5.371,-17.090,10.742,25.391
1689934105.394,90.332,16.113,-18.555,75.684,30.762
1689934105.398,78.125,22.461,-22.949,81.055,74.707
1689934105.402,75.195,22.949,-22.461,30.273,49.316
1689934105.406,75.195,20.996,-15.625,-13.672,42.969
1689934105.410,61.035,15.625,-14.648,-1.465,54.199
1689934105.414,66.406,12.695,-14.160,58.594,-19.531
1689934105.418,61.035,12.207,-8.789,63.477,-39.551
1689934105.421,60.547,12.207,-7.324,14.648,-36.621
1689934105.425,66.406,-13.672,-11.230,-19.531,-42.480
1689934105.429,68.359,-26.855,-6.348,0.488,-37.598
1689934105.433,68.359,-5.859,-4.395,61.523,-30.273
1689934105.437,66.895,13.184,2.441,78.125,11.230
1689934105.441,67.383,27.832,4.883,38.086,-7.812
1689934105.445,57.129,32.715,1.465,-10.742,27.344
1689934105.449,49.805,25.879,8.789,-9.766,81.543
1689934105.453,57.129,20.996,10.254,50.781,70.312
1689934105.457,60.059,0.488,10.742,86.426,117.676
1689934105.461,52.246,-15.625,19.043,61.035,148.926
1689934105.465,43.945,3.906,14.648,0.488,88.379
1689934105.468,41.992,25.879,9.277,-18.555,35.645
1689934105.472,48.340,30.762,14.160,39.062,10.742
1689934105.476,52.734,22.949,17.578,81.543,12.207
1689934105.480,48.340,14.648,15.625,63.477,7.812
1689934105.484,41.504,16.602,18.066,7.812,13.184
1689934105.488,41.992,17.578,23.926,-18.066,51.270
1689934105.492,45.410,9.766,20.508,37.109,63.477
1689934105.496,50.293,11.719,18.555,74.707,70.801
1689934105.500,49.316,15.625,15.137,57.617,76.172
1689934105.504,40.039,13.184,17.578,15.137,112.305
1689934105.508,34.668,-1.465,24.414,-14.160,72.754
1689934105.512,38.086,-6.348,20.996,22.461,31.250
1689934105.515,39.062,18.555,14.648,70.312,80.078
1689934105.519,33.691,27.344,18.066,63.477,49.316
1689934105.523,23.438,25.391,16.602,10.742,4.883
1689934105.527,18.555,27.832,12.207,-21.973,61.035
1689934105.531,23.438,24.414,17.578,14.648,105.957
1689934105.535,28.809,20.020,20.996,51.758,24.902
1689934105.539,23.438,13.184,19.043,48.828,-28.320
1689934105.543,17.090,8.789,25.391,14.648,12.207
1689934105.547,14.160,15.625,26.367,-31.250,19.531
1689934105.551,12.695,17.578,22.949,-7.812,49.805
1689934105.555,21.973,0.000,27.344,61.035,70.801
1689934105.559,30.273,0.977,28.809,76.660,20.020
1689934105.562,27.832,12.695,17.090,24.414,40.527
1689934105.566,19.531,18.555,20.020,-30.273,35.156
1689934105.570,20.996,19.531,24.414,-5.859,10.742
1689934105.574,41.504,20.508,23.438,55.664,4.883
1689934105.578,47.852,39.062,24.414,83.008,41.016
1689934105.582,28.320,46.875,21.484,36.621,72.266
1689934105.586,19.043,42.969,20.996,-31.250,-14.160
1689934105.590,20.508,34.180,22.461,-15.625,-40.527
1689934105.594,30.273,32.715,24.902,38.086,26.855
1689934105.598,40.527,31.250,26.855,62.012,66.406
1689934105.602,31.250,25.879,27.344,29.297,10.254
1689934105.606,19.043,28.809,25.391,-20.020,5.371
1689934105.609,26.367,25.879,29.297,-17.090,-16.113
1689934105.613,35.645,12.695,30.762,24.902,-38.086
1689934105.617,41.504,21.973,28.320,61.523,5.859
1689934105.621,39.062,29.297,32.715,45.410,29.785
1689934105.625,33.691,29.785,29.785,-11.230,33.203
1689934105.629,33.691,37.109,29.297,-8.789,-6.836
1689934105.633,45.410,29.297,31.250,49.805,46.387
1689934105.637,62.012,19.043,29.785,87.402,23.438
1689934105.641,56.152,20.020,26.367,63.965,-44.434
1689934105.645,36.621,12.207,27.832,3.906,-27.832
1689934105.649,36.621,19.531,34.180,-7.812,10.742
1689934105.653,40.527,49.316,25.879,32.715,41.992
1689934105.656,33.691,49.316,23.438,68.848,30.273
1689934105.660,35.645,41.016,28.809,57.617,30.762
1689934105.664,28.320,39.062,30.273,1.953,96.191
1689934105.668,21.973,28.809,34.180,-27.344,74.707
1689934105.672,30.273,29.297,35.645,16.602,107.422
1689934105.676,34.180,29.785,37.109,70.801,80.078
1689934105.680,23.926,24.414,39.062,65.918,4.883
1689934105.684,13.672,24.902,34.180,3.906,12.207
1689934105.688,14.648,22.949,35.156,-32.715,-27.344
1689934105.692,17.090,28.320,33.203,3.906,-5.371
1689934105.696,22.949,31.738,23.438,67.871,41.016
1689934105.700,32.227,27.344,29.785,77.637,-5.371
1689934105.703,23.926,21.484,35.645,17.578,4.395
1689934105.707,19.043,17.578,26.367,-23.438,48.340
1689934105.711,33.691,15.625,29.297,0.000,33.203
1689934105.715,41.504,27.344,23.438,50.293,52.734
1689934105.719,35.645,27.344,19.043,74.219,72.754
1689934105.723,29.785,25.391,24.902,28.809,72.266
1689934105.727,25.879,35.156,22.949,-27.832,-21.484
1689934105.731,25.391,41.504,23.438,-6.348,-57.617
1689934105.735,35.645,31.250,22.949,54.688,14.648
1689934105.739,44.922,18.066,26.855,83.984,65.430
1689934105.743,40.039,20.996,32.715,40.527,108.887
1689934105.747,27.832,25.391,35.645,-10.742,68.359
1689934105.751,22.461,30.273,35.645,-8.301,-29.785
1689934105.754,35.156,39.551,39.551,43.457,-18.066
1689934105.758,41.016,41.016,37.109,79.590,-23.926
1689934105.762,33.203,40.527,28.320,41.016,-16.602
1689934105.766,25.391,34.668,30.762,-22.949,38.086
1689934105.770,24.902,26.367,35.156,-31.250,26.367
1689934105.774,35.156,30.762,38.574,29.297,68.359
1689934105.778,44.434,35.645,38.574,78.125,103.516
1689934105.782,40.527,28.320,37.109,52.734,39.062
1689934105.786,28.320,23.926,35.156,-8.301,1.953
1689934105.790,25.391,30.273,35.156,-22.949,-32.227
1689934105.794,32.227,31.250,36.621,29.785,-23.438
1689934105.798,47.363,15.137,32.227,87.402,-33.203
1689934105.801,47.852,3.906,29.785,70.801,-4.883
1689934105.805,37.598,22.461,23.926,5.371,91.309
1689934105.809,59.570,48.828,11.230,-2.441,53.711
1689934105.813,73.730,52.246,19.531,55.664,-9.766
1689934105.817,47.852,41.504,40.527,95.703,33.691
1689934105.821,19.043,30.273,38.086,54.688,19.043
1689934105.825,8.301,10.254,36.133,-19.043,33.203
1689934105.829,6.348,17.090,36.621,-37.109,94.238
1689934105.833,-10.254,37.598,40.527,-17.578,72.754
1689934105.837,-16.602,38.086,42.969,35.156,47.852
1689934105.841,-23.926,34.668,40.527,29.785,20.508
1689934105.845,-34.180,36.133,41.504,-40.039,-0.488
1689934105.848,-36.133,38.086,35.645,-65.918,-3.418
1689934105.852,-35.156,32.715,36.133,-30.762,20.020
1689934105.856,-20.508,13.184,40.039,34.668,57.129
1689934105.860,-21.484,12.207,42.480,35.156,8.301
1689934105.864,-30.762,28.320,43.945,-32.227,-15.625
1689934105.868,-30.762,40.527,42.969,-74.707,27.344
1689934105.872,-19.043,51.270,41.504,-35.156,63.965
1689934105.876,-6.836,52.734,39.062,28.320,70.312
1689934105.880,-5.371,50.293,38.086,32.715,48.828
1689934105.884,-4.395,49.805,32.715,-7.324,48.828
1689934105.888,-8.301,39.551,26.855,-58.105,44.434
1689934105.892,-6.836,34.668,31.738,-43.945,33.203
1689934105.895,7.812,43.945,36.621,34.180,12.207
1689934105.899,8.301,38.086,29.785,50.781,5.371
1689934105.903,2.930,31.250,27.832,6.348,14.648
1689934105.907,9.277,34.668,31.250,-41.504,21.973
1689934105.911,19.043,38.086,30.762,-31.250,71.289
1689934105.915,19.531,33.691,31.250,38.574,62.012
1689934105.919,21.973,29.785,30.273,65.918,-4.883
1689934105.923,23.438,30.273,29.785,31.738,-5.859
1689934105.927,13.672,30.762,28.809,-19.531,44.922
1689934105.931,16.113,30.762,29.297,-9.766,41.992
1689934105.935,24.902,34.668,31.250,49.316,35.645
1689934105.939,25.879,36.133,31.250,77.637,39.551
1689934105.942,20.020,34.180,30.273,42.969,0.488
1689934105.946,7.812,36.133,33.203,-19.531,47.363
1689934105.950,10.742,32.227,36.133,-28.320,52.734
1689934105.954,18.555,25.391,34.668,33.203,2.930
1689934105.958,25.391,24.902,32.227,75.195,55.176
1689934105.962,18.066,31.738,32.715,41.504,16.113
1689934105.966,10.742,40.039,34.668,-20.020,-26.855
1689934105.970,12.695,40.527,35.156,-27.832,35.645
1689934105.974,20.996,36.621,35.156,21.973,39.551
1689934105.978,31.250,37.598,34.668,50.781,66.406
1689934105.982,32.715,20.020,35.156,33.691,25.879
1689934105.986,35.645,14.160,35.156,-4.883,-26.367
1689934105.989,30.273,37.598,33.691,-24.902,8.789
1689934105.993,27.344,43.945,41.504,14.648,-2.441
1689934105.997,29.785,42.480,42.480,70.801,44.922
1689934106.001,34.668,28.809,40.039,63.477,55.664
1689934106.005,22.461,18.555,40.527,10.742,13.672
1689934106.009,5.371,31.738,36.133,-32.227,27.832
1689934106.013,8.301,33.203,33.691,-2.930,9.766
1689934106.017,17.578,21.973,33.691,59.570,34.180
1689934106.021,20.020,24.414,29.297,60.059,86.426
1689934106.025,11.230,35.156,26.855,19.043,88.379
1689934106.029,11.719,38.086,25.391,-31.738,53.711
1689934106.033,9.277,35.645,27.832,-12.695,63.477
1689934106.036,9.766,28.809,33.203,50.293,43.945
1689934106.040,21.973,19.043,31.738,67.383,11.719
1689934106.044,25.879,20.020,30.762,29.785,9.766
1689934106.048,18.555,36.133,30.273,-16.113,-8.789
1689934106.052,16.602,41.016,28.809,1.465,4.395
1689934106.056,29.297,41.016,30.273,64.453,-1.953
1689934106.060,38.574,44.434,29.297,86.914,-42.480
1689934106.064,34.668,37.109,27.344,47.852,-0.977
1689934106.068,37.109,23.438,20.020,0.000,48.828
1689934106.072,39.551,25.879,13.672,4.883,30.762
1689934106.076,37.598,40.039,20.508,61.523,24.414
1689934106.080,35.156,47.363,20.020,93.750,-2.930
1689934106.084,28.320,46.875,21.973,43.945,-2.441
1689934106.087,22.461,41.992,28.320,-17.578,23.926
1689934106.091,30.762,35.645,24.414,1.465,77.637
1689934106.095,41.504,39.551,26.367,65.430,87.891
1689934106.099,42.480,50.293,28.320,92.285,59.570
1689934106.103,37.109,53.223,23.438,54.688,62.988
1689934106.107,30.762,46.387,22.949,-8.789,73.730
1689934106.111,29.297,35.645,26.855,-17.090,130.859
1689934106.115,35.156,28.809,26.367,39.551,108.887
1689934106.119,37.598,33.203,26.855,83.008,-3.418
1689934106.123,35.156,43.457,25.879,54.688,18.066
1689934106.127,28.320,43.457,23.926,-2.930,45.898
1689934106.131,24.902,40.039,24.902,-10.742,50.293
1689934106.134,29.297,38.086,25.391,39.551,40.039
1689934106.138,34.180,39.062,21.484,83.008,60.547
1689934106.142,31.738,37.109,20.508,62.012,92.285
1689934106.146,22.461,33.203,24.414,4.883,68.359
1689934106.150,21.484,35.645,21.484,-19.531,13.672
1689934106.154,28.320,33.203,18.555,19.043,-35.645
1689934106.158,35.645,35.156,19.043,68.359,-28.809
1689934106.162,35.156,33.203,16.602,62.500,-1.465
1689934106.166,26.855,27.344,20.996,7.324,42.480
1689934106.170,18.066,27.344,24.902,-24.902,52.734
1689934106.174,23.926,32.227,20.996,11.719,47.363
1689934106.178,32.227,39.062,21.484,67.871,42.969
1689934106.181,34.180,44.922,30.762,65.918,17.090
1689934106.185,23.926,42.969,33.691,0.977,-15.625
1689934106.189,13.672,41.504,28.320,-33.203,6.836
1689934106.193,18.066,22.461,28.320,-2.930,21.973
1689934106.197,24.414,0.488,30.273,51.758,58.594
1689934106.201,27.344,24.902,27.344,55.664,38.574
1689934106.205,20.996,44.434,24.414,-2.930,26.855
1689934106.209,15.625,41.504,25.391,-38.574,30.273
1689934106.213,31.738,27.832,23.438,-2.441,14.648
1689934106.217,64.941,23.438,19.043,80.566,45.898
1689934106.221,69.336,38.086,13.672,97.168,27.832
1689934106.225,25.391,41.992,17.578,18.555,104.980
1689934106.228,6.836,31.738,18.555,-37.598,92.285
1689934106.232,11.719,25.391,14.160,-16.113,0.000
1689934106.236,18.555,30.273,16.113,35.645,-5.371
1689934106.240,36.621,27.344,14.648,57.129,-7.812
1689934106.244,24.902,21.973,13.672,8.301,68.848
1689934106.248,18.066,25.391,12.695,-44.922,133.789
1689934106.252,23.926,26.855,15.625,-20.020,55.176
1689934106.256,20.508,33.203,10.254,30.762,31.250
1689934106.260,25.879,41.504,7.324,64.941,34.668
1689934106.264,34.180,40.039,15.137,50.293,-17.578
1689934106.268,26.855,36.621,17.578,-20.508,-50.293
1689934106.272,21.973,33.203,17.090,-25.391,-11.719
1689934106.275,35.156,20.996,17.090,39.062,11.719
1689934106.279,42.969,12.695,20.508,79.590,-17.090
1689934106.283,33.691,18.555,27.832,53.711,-42.969
1689934106.287,29.297,39.062,25.391,-0.488,-1.953
1689934106.291,24.902,41.992,16.113,-21.484,9.766
1689934106.295,28.809,36.621,19.531,41.504,-49.805
1689934106.299,41.992,36.133,23.926,95.703,-3.418
1689934106.303,47.852,30.762,25.879,82.520,58.594
1689934106.307,39.551,35.156,27.832,14.648,-16.602
1689934106.311,31.250,22.949,27.344,-18.066,14.648
1689934106.315,35.645,14.160,26.855,37.109,60.547
1689934106.319,41.992,32.715,22.949,81.055,-28.320
1689934106.322,41.504,34.180,22.461,65.430,3.418
1689934106.326,32.227,27.344,25.879,14.160,-18.555
1689934106.330,25.391,31.250,23.926,-16.602,5.371
1689934106.334,29.785,25.879,18.555,11.230,62.012
1689934106.338,41.992,23.926,18.555,73.730,46.387
1689934106.342,45.898,34.180,24.414,83.008,40.039
1689934106.346,36.621,31.738,27.344,22.461,8.301
1689934106.350,23.926,24.414,21.484,-10.742,81.543
1689934106.354,28.809,18.555,23.438,14.160,68.848
1689934106.358,40.039,30.273,26.855,61.523,3.418
1689934106.362,35.645,39.062,23.926,70.312,15.137
1689934106.366,20.508,30.762,26.367,21.973,61.523
1689934106.370,17.090,32.715,23.926,-29.785,5.859
1689934106.373,22.461,37.598,23.438,-13.184,3.906
1689934106.377,32.715,33.691,23.438,62.012,58.105
1689934106.381,37.598,33.691,22.461,82.031,24.414
1689934106.385,29.297,32.715,23.438,18.555,19.043
1689934106.389,20.996,31.738,22.461,-28.320,-26.855
1689934106.393,24.414,36.133,19.531,-10.742,-42.480
1689934106.397,41.016,34.180,18.066,50.781,32.715
1689934106.401,51.758,32.227,17.090,83.984,69.336
1689934106.405,45.898,30.762,21.484,46.387,19.043
1689934106.409,35.156,24.902,23.926,-11.719,9.277
1689934106.413,30.273,30.273,21.973,-15.625,19.043
1689934106.417,36.621,38.574,17.578,51.270,25.879
1689934106.420,39.551,35.156,15.137,81.055,46.387
1689934106.424,36.133,26.367,17.578,58.594,24.414
1689934106.428,26.855,25.879,20.996,4.395,6.836
1689934106.432,22.949,31.738,23.926,-24.902,48.828
1689934106.436,35.156,33.691,20.996,41.992,55.176
1689934106.440,41.016,30.762,22.949,88.867,15.625
1689934106.444,40.039,28.809,27.344,62.988,68.359
1689934106.448,38.086,22.949,29.297,11.230,61.035
1689934106.452,34.668,18.555,28.809,-12.695,47.852
1689934106.456,39.062,27.344,26.367,34.668,75.195
1689934106.460,42.969,32.715,23.926,92.773,19.531
1689934106.464,30.762,31.250,22.949,65.918,17.578
1689934106.467,25.391,33.691,25.879,3.906,44.922
1689934106.471,23.926,34.668,26.367,-17.090,27.344
1689934106.475,25.879,26.367,28.809,35.645,40.039
1689934106.479,37.109,20.996,31.738,84.961,27.832
1689934106.483,32.715,29.297,29.785,64.453,4.883
1689934106.487,18.555,33.203,31.250,8.301,4.395
1689934106.491,12.207,26.367,31.738,-24.902,-8.301
1689934106.495,17.090,26.367,28.320,10.742,24.902
1689934106.499,21.973,26.855,31.738,57.129,33.691
1689934106.503,29.297,21.973,33.691,62.012,-21.973
1689934106.507,41.016,21.973,36.621,41.504,40.527
1689934106.511,50.293,22.461,40.039,7.812,86.426
1689934106.514,32.227,20.996,31.738,14.648,30.273
1689934106.518,19.531,29.297,20.996,52.246,56.641
1689934106.522,33.691,34.668,12.695,61.035,1.953
1689934106.526,34.668,40.527,11.230,10.742,-20.996
1689934106.530,26.855,42.480,10.742,-25.879,75.195
1689934106.534,35.645,38.086,12.207,7.812,43.945
1689934106.538,52.246,38.086,19.531,59.570,11.230
1689934106.542,55.176,33.691,17.578,81.055,63.965
1689934106.546,44.434,27.832,15.625,33.203,65.430
1689934106.550,54.688,29.785,23.926,-8.789,4.883
1689934106.554,50.293,31.250,31.250,16.602,45.898
1689934106.558,41.992,20.508,29.297,56.641,73.242
1689934106.561,50.781,20.020,25.879,90.332,39.062
1689934106.565,44.922,28.320,26.367,66.406,23.926
1689934106.569,39.062,32.227,24.902,-1.953,49.316
1689934106.573,43.945,29.785,21.973,2.441,65.918
1689934106.577,50.781,21.973,20.020,63.477,43.457
1689934106.581,51.758,14.160,21.484,93.750,56.152
1689934106.585,44.922,15.137,22.461,54.199,33.203
1689934106.589,36.133,27.344,20.020,-17.578,27.832
1689934106.593,41.016,34.180,17.578,-8.301,52.246
1689934106.597,43.457,36.133,12.695,46.387,57.617
1689934106.601,40.527,30.273,13.184,76.660,68.848
1689934106.605,39.551,23.926,20.020,61.523,40.039
1689934106.608,20.020,31.250,20.508,-9.766,20.996
1689934106.612,24.414,37.598,21.484,-25.391,86.426
1689934106.616,37.109,33.691,21.484,27.344,62.500
1689934106.620,39.551,26.367,17.090,72.266,-57.129
1689934106.624,36.133,25.391,20.020,69.336,-1.465
1689934106.628,28.320,29.297,21.484,11.719,48.828
1689934106.632,37.109,27.344,18.066,-8.301,35.645
1689934106.636,37.109,27.344,17.090,24.902,19.043
1689934106.640,32.227,29.785,15.625,77.148,17.578
1689934106.644,43.457,30.762,13.184,74.219,4.883
1689934106.648,50.293,30.273,10.254,17.090,20.020
1689934106.652,51.270,38.086,12.695,1.953,83.984
1689934106.655,57.129,48.340,18.555,22.949,68.359
1689934106.659,62.012,46.387,20.508,82.031,18.555
1689934106.663,55.176,37.598,18.066,94.727,-25.879
1689934106.667,43.457,32.227,22.461,37.109,-19.531
1689934106.671,28.809,31.250,21.973,-6.836,35.156
1689934106.675,23.926,31.250,18.555,11.719,50.293
1689934106.679,31.250,33.203,21.484,68.848,47.363
1689934106.683,32.227,28.809,21.484,84.961,56.641
1689934106.687,33.203,28.320,25.879,30.273,60.059
1689934106.691,30.273,32.227,26.367,-16.602,110.352
1689934106.695,25.879,27.832,21.973,-1.953,99.609
1689934106.699,30.273,31.250,22.949,43.945,50.293
1689934106.703,26.367,34.180,24.414,68.359,99.609
1689934106.706,19.043,27.832,26.855,27.344,47.852
1689934106.710,9.277,17.090,25.879,-23.438,28.320
1689934106.714,2.930,16.602,29.297,-21.484,32.227
1689934106.718,20.996,28.320,33.203,34.180,35.645
1689934106.722,17.090,36.621,32.227,67.383,37.598
1689934106.726,11.719,33.203,31.738,21.973,40.527
1689934106.730,16.602,28.320,30.273,-37.598,47.852
1689934106.734,16.602,24.902,27.344,-35.156,54.199
1689934106.738,31.738,28.320,26.855,36.133,73.242
1689934106.742,33.203,36.133,28.809,72.266,46.387
1689934106.746,25.879,32.227,31.738,30.273,16.113
1689934106.750,18.066,23.438,33.691,-22.461,-1.953
1689934106.753,19.531,18.555,34.668,-32.227,28.809
1689934106.757,32.715,23.438,32.715,20.508,91.797
1689934106.761,38.574,26.855,32.227,72.754,34.668
1689934106.765,30.273,20.020,36.621,37.109,-15.625
1689934106.769,27.344,23.438,37.109,-16.113,0.977
1689934106.773,20.508,28.320,31.738,-19.043,-12.695
1689934106.777,10.742,32.227,26.367,23.438,-12.207
1689934106.781,18.555,33.691,26.367,80.078,17.578
1689934106.785,19.043,28.320,28.809,48.340,33.691
1689934106.789,17.090,26.855,29.785,-14.648,74.219
1689934106.793,16.602,20.508,33.203,-33.203,123.535
1689934106.797,11.719,11.230,34.180,3.906,63.965
1689934106.800,22.461,27.832,30.762,61.523,43.945
1689934106.804,31.738,42.480,35.645,54.688,71.289
1689934106.808,19.531,33.691,31.250,0.977,25.391
1689934106.812,2.930,23.926,26.367,-44.434,35.645
1689934106.816,9.277,17.090,27.832,-10.742,-28.809
1689934106.820,14.648,20.996,24.902,56.152,-30.273
1689934106.824,15.625,30.273,22.949,62.012,3.418
1689934106.828,15.625,26.855,27.832,10.254,-33.691
1689934106.832,6.836,20.996,30.762,-36.621,9.766
1689934106.836,9.766,22.949,28.320,-4.883,5.859
1689934106.840,25.879,25.391,29.785,64.941,1.465
1689934106.844,25.879,15.625,29.785,67.383,50.781
1689934106.847,14.160,17.090,29.785,7.324,12.207
1689934106.851,11.719,31.250,29.785,-39.551,43.945
1689934106.855,13.672,29.785,35.645,-7.812,27.832
1689934106.859,27.344,26.855,37.598,62.988,-9.277
1689934106.863,30.273,26.367,33.203,71.777,50.293
1689934106.867,16.602,19.043,32.227,29.297,44.434
1689934106.871,12.695,9.766,28.809,-31.250,63.477
1689934106.875,20.020,13.184,25.879,-26.855,18.555
1689934106.879,34.668,27.344,31.250,51.270,55.176
1689934106.883,32.715,32.227,31.738,78.613,123.047
1689934106.887,26.367,29.297,24.902,25.879,52.246
1689934106.891,28.809,33.691,22.949,-18.066,58.105
1689934106.894,19.531,36.133,24.414,-14.648,25.391
1689934106.898,27.832,34.180,21.484,40.039,39.062
1689934106.902,41.016,29.297,19.043,68.848,99.121
1689934106.906,35.156,26.367,22.949,29.785,3.418
1689934106.910,24.902,23.926,26.855,-18.555,-23.926
1689934106.914,20.996,26.855,29.297,-23.438,16.113
1689934106.918,29.297,36.621,27.344,32.227,82.031
1689934106.922,35.645,38.574,22.949,66.895,81.055
1689934106.926,33.691,33.203,21.484,43.457,31.738
1689934106.930,24.902,30.273,22.949,-15.625,30.273
1689934106.934,21.484,29.785,24.902,-38.086,-14.648
1689934106.938,30.273,28.320,27.832,20.996,-26.855
1689934106.941,44.434,30.273,28.320,80.078,-7.324
1689934106.945,48.340,32.227,25.879,60.059,27.832
1689934106.949,41.504,33.691,27.832,-4.883,-2.441
1689934106.953,40.039,17.578,25.391,-19.043,-18.555
1689934106.957,61.035,11.230,18.066,49.805,35.645
1689934106.961,81.055,36.621,20.020,107.422,32.227
1689934106.965,60.547,43.945,23.926,84.961,30.273
1689934106.969,37.109,32.227,24.414,12.207,4.883
1689934106.973,29.785,30.762,25.879,-31.738,-7.324
1689934106.977,29.785,34.668,21.973,18.066,17.090
1689934106.981,30.273,26.367,20.508,71.777,23.926
1689934106.985,30.273,22.461,20.020,58.105,7.324
1689934106.988,31.738,29.297,20.020,3.906,23.926
1689934106.992,17.578,19.043,18.066,-40.527,77.148
1689934106.996,20.996,10.742,18.555,3.418,-9.277
1689934107.000,34.668,21.973,21.484,71.777,-42.480
1689934107.004,29.297,24.414,21.484,73.242,26.367
1689934107.008,23.926,20.020,24.414,17.578,18.066
1689934107.012,17.090,28.320,21.973,-33.203,0.977
1689934107.016,17.090,37.109,17.090,-13.672,11.719
1689934107.020,38.574,34.668,19.531,49.316,62.500
1689934107.024,46.387,29.785,22.461,74.219,113.770
1689934107.028,32.227,30.762,21.973,24.414,66.895
1689934107.032,28.320,33.691,24.414,-25.391,27.832
1689934107.036,30.273,33.691,29.785,-3.418,13.672
1689934107.039,33.691,22.949,30.273,54.199,28.809
1689934107.043,33.691,21.973,28.809,69.336,60.059
1689934107.047,28.320,30.762,28.320,12.207,44.922
1689934107.051,24.414,30.762,25.879,-41.504,34.180
1689934107.055,21.484,27.832,29.297,-18.066,66.406
1689934107.059,26.855,31.738,27.832,41.016,49.316
1689934107.063,30.762,34.668,25.391,72.754,53.711
1689934107.067,23.926,34.668,26.855,37.598,48.828
1689934107.071,11.230,31.738,26.367,-19.043,28.320
1689934107.075,7.324,29.297,32.715,-12.207,28.320
1689934107.079,17.578,30.762,31.250,36.621,-7.812
1689934107.083,22.949,25.391,25.879,65.918,-46.387
1689934107.086,16.113,25.391,26.855,42.969,73.242
1689934107.090,11.230,30.273,27.344,-22.949,71.777
1689934107.094,13.672,31.738,23.926,-24.902,19.531
1689934107.098,14.648,28.809,19.531,32.227,80.566
1689934107.102,19.531,24.414,19.531,74.707,38.086
1689934107.106,27.344,30.762,21.484,55.176,27.344
1689934107.110,24.902,35.156,27.344,-6.348,38.574
1689934107.114,10.254,31.738,19.043,-21.973,3.906
1689934107.118,14.648,26.367,16.113,32.715,-34.668
1689934107.122,29.297,26.367,23.926,87.891,2.930
1689934107.126,25.879,27.832,25.391,63.477,26.855
1689934107.130,16.602,26.855,23.438,-1.465,23.926
1689934107.133,15.137,28.809,21.973,-28.320,-17.578
1689934107.137,18.555,30.762,20.508,20.020,-29.785
1689934107.141,25.391,12.695,17.090,76.660,37.598
1689934107.145,29.785,13.184,23.926,59.570,80.078
1689934107.149,20.996,27.832,28.809,10.254,60.547
1689934107.153,10.254,23.438,21.973,-20.508,32.227
1689934107.157,9.766,25.391,20.508,0.488,59.082
1689934107.161,20.508,32.227,21.484,57.129,71.289
1689934107.165,29.297,29.297,19.043,68.359,46.387
1689934107.169,22.949,30.273,18.555,4.395,80.078
1689934107.173,25.391,34.180,17.090,-38.086,51.758
1689934107.177,27.832,23.438,16.113,-3.906,29.785
1689934107.180,28.320,22.949,14.160,56.152,50.781
1689934107.184,26.855,27.344,15.137,72.754,64.941
1689934107.188,20.020,29.297,18.066,17.090,70.801
1689934107.192,17.578,31.250,18.555,-21.484,51.270
1689934107.196,20.508,29.785,20.020,0.000,30.273
1689934107.200,31.250,26.855,20.020,59.082,-16.113
1689934107.204,39.551,26.367,19.531,88.867,28.809
1689934107.208,25.391,27.832,18.066,32.227,34.668
1689934107.212,11.719,26.367,16.602,-29.785,-7.812
1689934107.216,16.113,25.879,18.066,-6.348,-22.461
1689934107.220,28.809,26.855,21.973,59.570,-14.160
1689934107.224,40.039,19.043,22.461,84.961,35.645
1689934107.227,42.480,18.066,23.438,50.781,79.590
1689934107.231,35.156,28.809,26.855,-16.113,-10.742
1689934107.235,31.738,30.273,28.320,-14.160,-55.664
1689934107.239,36.133,32.227,27.344,51.270,3.418
1689934107.243,37.109,37.109,23.926,85.449,9.277
1689934107.247,32.715,38.086,23.438,56.641,24.902
1689934107.251,23.926,32.227,26.367,-9.766,53.223
1689934107.255,30.273,28.809,27.832,-20.996,21.973
1689934107.259,44.922,35.645,25.879,34.180,23.438
1689934107.263,56.152,37.109,24.902,94.727,59.570
1689934107.267,44.922,38.574,25.391,58.105,2.441
1689934107.271,21.484,38.086,22.461,-29.297,-9.277
1689934107.274,22.461,35.645,21.973,-22.461,88.379
1689934107.278,35.156,31.250,25.391,17.090,76.172
1689934107.282,35.645,26.855,26.367,58.594,1.465
1689934107.286,23.438,21.484,26.855,54.688,55.664
1689934107.290,22.461,21.973,23.926,-5.859,122.559
1689934107.294,20.996,25.879,27.344,-30.762,66.406
1689934107.298,22.949,19.531,32.227,16.113,20.020
1689934107.302,38.086,14.648,28.320,70.801,56.641
1689934107.306,38.086,16.113,22.461,60.547,41.016
1689934107.310,31.250,17.578,24.414,8.301,10.742
1689934107.314,25.879,20.508,26.855,-18.555,38.574
1689934107.318,21.484,21.484,23.438,14.648,100.098
1689934107.321,39.062,25.391,23.438,70.801,83.008
1689934107.325,47.852,27.344,27.832,71.777,58.594
1689934107.329,34.180,17.090,24.414,11.719,21.484
1689934107.333,30.762,13.184,23.438,-29.297,42.480
1689934107.337,41.504,23.438,28.320,4.395,42.480
1689934107.341,51.758,37.598,28.320,70.312,-3.906
1689934107.345,47.852,39.551,27.344,73.242,-26.367
1689934107.349,40.527,36.133,30.762,22.949,-52.734
1689934107.353,39.062,35.156,29.297,-21.484,-57.617
1689934107.357,40.527,38.086,26.367,3.906,-9.277
1689934107.361,41.992,32.715,29.785,69.824,6.836
1689934107.365,37.598,34.668,29.785,87.891,11.230
1689934107.369,38.086,39.551,30.762,39.062,27.344
1689934107.372,31.250,24.902,29.785,-11.230,-6.836
1689934107.376,24.902,17.090,25.391,-4.395,-23.926
1689934107.380,36.133,20.996,23.926,44.434,2.930
1689934107.384,34.668,21.973,20.996,78.613,-15.137
1689934107.388,22.461,20.020,18.555,50.293,20.508
1689934107.392,15.137,25.879,18.555,-5.371,52.246
1689934107.396,20.020,36.133,23.926,-9.766,-1.465
1689934107.400,31.250,37.109,25.879,49.805,-14.648
1689934107.404,37.109,30.273,25.879,86.914,28.809
1689934107.408,35.645,28.809,29.297,49.805,45.898
1689934107.412,32.227,33.203,32.715,-25.391,32.227
1689934107.416,32.227,36.133,26.855,-21.484,55.664
1689934107.419,33.691,36.621,23.438,47.852,69.824
1689934107.423,43.457,37.598,30.762,81.543,50.781
1689934107.427,44.434,38.574,34.180,68.359,18.555
1689934107.431,32.715,28.809,28.320,8.301,8.301
1689934107.435,27.832,27.832,22.949,-14.160,-8.301
1689934107.439,37.598,24.902,21.973,33.691,40.039
1689934107.443,43.457,20.508,24.902,85.938,60.547
1689934107.447,39.551,24.902,27.344,82.031,39.551
1689934107.451,36.621,32.715,27.344,4.883,-1.953
1689934107.455,26.855,40.039,25.879,-26.855,-7.324
1689934107.459,31.250,33.203,25.391,21.484,-0.488
1689934107.463,31.738,30.273,24.902,65.918,21.484
1689934107.466,22.461,32.715,20.020,64.453,41.016
1689934107.470,19.531,33.691,24.902,14.648,50.293
1689934107.474,15.625,36.621,32.715,-20.996,108.398
1689934107.478,23.926,35.156,31.250,-2.441,38.574
1689934107.482,30.273,30.273,35.645,59.082,3.418
1689934107.486,32.227,20.996,40.527,75.195,-6.348
1689934107.490,28.320,18.555,39.551,22.461,-10.254
1689934107.494,21.484,25.879,34.668,-22.949,47.363
1689934107.498,28.320,28.809,32.227,0.977,58.594
1689934107.502,42.969,33.691,28.320,76.172,48.340
1689934107.506,42.480,36.621,25.879,92.285,92.773
1689934107.510,30.762,35.156,28.320,31.250,81.055
1689934107.513,28.320,36.621,35.156,-10.254,-12.207
1689934107.517,39.551,39.551,40.527,21.484,-13.672
1689934107.521,41.504,34.180,32.715,67.871,62.500
1689934107.525,38.574,31.738,29.785,79.590,64.453
1689934107.529,36.133,24.902,31.250,30.273,41.016
1689934107.533,29.297,18.066,30.762,-26.367,41.504
1689934107.537,26.367,17.578,33.691,-1.465,71.289
1689934107.541,29.297,20.020,28.809,47.852,37.598
1689934107.545,38.086,26.367,25.879,68.359,23.438
1689934107.549,33.691,32.715,30.762,32.715,110.352
1689934107.553,15.137,36.133,33.203,-20.996,66.895
1689934107.557,10.742,33.203,35.156,-22.461,14.160
1689934107.560,25.879,32.715,32.715,38.574,53.711
1689934107.564,33.691,33.203,34.180,87.402,30.762
1689934107.568,32.227,30.762,36.133,56.641,-13.672
1689934107.572,27.344,24.902,35.645,-7.324,-3.418
1689934107.576,21.484,21.973,35.645,-14.648,22.949
1689934107.580,28.809,27.344,32.227,38.086,20.996
1689934107.584,36.621,24.902,34.180,86.426,-33.691
1689934107.588,31.250,22.949,34.668,58.105,-27.344
1689934107.592,25.391,27.344,34.668,-3.906,11.230
1689934107.596,24.414,24.414,37.109,-9.277,21.484
1689934107.600,19.531,21.484,34.668,29.785,49.316
1689934107.604,20.020,25.879,35.156,81.055,29.785
1689934107.607,23.438,30.762,34.668,72.754,21.973
1689934107.611,20.996,23.438,32.715,7.324,62.012
1689934107.615,13.672,16.113,31.738,-15.625,47.852
1689934107.619,21.973,19.043,28.809,14.160,-11.230
1689934107.623,31.738,22.949,27.344,68.848,-50.293
1689934107.627,28.809,17.578,28.809,69.336,-1.465
1689934107.631,25.879,26.367,29.297,6.348,60.547
1689934107.635,25.391,38.574,31.250,-17.578,120.117
1689934107.639,33.691,37.598,33.691,16.602,45.410
1689934107.643,42.480,24.414,33.691,74.219,33.203
1689934107.647,38.574,15.137,33.691,78.125,64.941
1689934107.651,29.785,21.973,38.086,16.602,-0.977
1689934107.654,25.879,23.438,37.598,-16.602,47.363
1689934107.658,32.715,21.973,36.133,3.906,67.871
1689934107.662,42.969,28.320,37.598,62.500,20.508
1689934107.666,41.504,32.715,35.645,78.613,20.508
1689934107.670,35.156,32.227,37.109,30.762,16.602
1689934107.674,31.738,27.344,35.645,-8.789,41.016
1689934107.678,35.645,17.090,35.156,1.953,50.293
1689934107.682,33.691,17.578,32.227,62.500,15.625
1689934107.686,28.320,18.555,28.809,89.844,38.086
1689934107.690,14.648,11.230,30.762,20.996,71.289
1689934107.694,8.789,24.902,33.203,-30.762,76.172
1689934107.698,18.066,24.902,35.645,-17.578,55.664
1689934107.702,19.043,12.695,31.250,27.832,-0.488
1689934107.705,25.879,20.020,26.855,80.566,-22.461
1689934107.709,23.926,28.809,25.879,38.086,-7.324
1689934107.713,13.672,35.645,28.809,-33.203,35.645
1689934107.717,16.602,31.738,29.785,-24.902,88.867
1689934107.721,34.180,20.996,26.855,43.945,34.668
1689934107.725,41.016,30.273,26.367,86.426,-11.719
1689934107.729,28.809,44.434,33.203,41.992,43.457
1689934107.733,28.320,42.969,34.180,-13.184,31.250
1689934107.737,32.227,39.551,26.855,-10.742,33.691
1689934107.741,43.457,40.039,26.367,38.574,15.137
1689934107.745,53.223,34.180,30.762,79.102,24.414
1689934107.749,46.875,18.066,35.645,54.199,46.387
1689934107.752,30.273,20.020,36.133,-4.883,10.742
1689934107.756,19.531,34.180,35.645,-20.996,20.020
1689934107.760,27.344,33.203,33.691,30.762,67.871
1689934107.764,33.203,30.273,33.203,80.078,25.879
1689934107.768,36.621,34.668,35.645,63.965,-44.922
1689934107.772,26.367,34.668,35.156,1.953,11.230
1689934107.776,11.719,31.250,33.203,-37.109,40.527
1689934107.780,16.602,29.785,30.762,4.883,41.504
1689934107.784,27.344,31.250,27.832,78.125,31.250
1689934107.788,32.227,34.668,26.855,60.547,32.227
1689934107.792,27.344,30.273,23.926,-9.766,71.777
1689934107.796,36.133,16.113,23.926,-42.480,41.992
1689934107.799,46.875,15.625,25.391,13.184,4.395
1689934107.803,44.922,25.391,16.113,68.848,7.812
1689934107.807,28.809,36.133,8.301,54.688,27.832
1689934107.811,22.949,36.621,6.348,11.719,47.363
1689934107.815,14.648,31.738,11.719,-40.527,45.898
1689934107.819,8.789,31.250,11.719,-16.113,28.809
1689934107.823,20.020,31.250,4.395,47.852,35.645
1689934107.827,12.207,29.785,5.859,58.105,51.758
1689934107.831,16.113,35.645,8.789,8.301,11.230
1689934107.835,11.230,39.062,9.766,-52.734,-32.715
1689934107.839,18.555,34.180,7.324,-20.996,-4.395
1689934107.843,40.039,33.691,10.742,53.223,62.988
1689934107.846,35.156,32.715,15.137,67.871,86.426
1689934107.850,29.785,29.297,15.625,27.832,66.406
1689934107.854,31.738,19.531,19.043,-21.973,73.242
1689934107.858,27.832,2.930,21.973,-4.395,41.992
1689934107.862,30.273,7.324,18.555,60.059,20.020
1689934107.866,40.039,28.809,18.066,83.984,53.711
1689934107.870,32.227,39.062,23.438,35.156,77.637
1689934107.874,26.367,41.016,26.855,-22.461,51.270
1689934107.878,29.297,39.062,29.297,-15.625,27.832
1689934107.882,32.715,38.086,25.879,47.852,28.320
1689934107.886,37.598,40.039,21.484,83.984,-35.645
1689934107.890,32.227,37.109,25.879,50.293,-17.578
1689934107.893,24.902,31.250,26.855,-20.020,72.266
1689934107.897,25.391,36.133,20.508,-25.391,20.508
1689934107.901,35.645,38.574,16.602,41.504,11.230
1689934107.905,45.410,33.203,18.555,84.473,38.086
1689934107.909,31.738,29.297,20.020,46.875,2.930
1689934107.913,18.066,30.762,18.555,-26.367,25.879
1689934107.917,18.066,29.785,19.043,-32.227,67.871
1689934107.921,25.391,30.273,26.367,34.668,21.484
1689934107.925,37.109,31.738,30.762,80.566,25.879
1689934107.929,39.062,36.133,33.691,55.664,53.711
1689934107.933,33.203,24.414,32.227,3.906,34.180
1689934107.937,35.156,10.742,30.273,-17.090,4.395
1689934107.940,33.691,26.855,33.691,33.691,51.270
1689934107.944,38.086,43.457,33.691,80.078,26.855
1689934107.948,42.480,43.945,30.762,66.406,-28.809
1689934107.952,34.180,24.902,36.621,13.672,39.551
1689934107.956,25.391,20.020,35.645,-19.531,64.941
1689934107.960,20.020,34.668,29.297,14.160,75.684
1689934107.964,34.180,43.457,24.902,68.848,43.945
1689934107.968,38.574,41.992,22.949,62.988,36.621
1689934107.972,26.367,35.645,21.484,-1.953,91.309
1689934107.976,29.297,30.273,20.508,-26.367,56.152
1689934107.980,28.320,32.227,20.996,3.418,42.480
1689934107.984,27.832,34.180,18.555,51.270,56.152
1689934107.987,40.039,29.297,18.555,75.684,25.391
1689934107.991,32.715,29.297,19.531,9.766,15.625
1689934107.995,21.484,29.785,20.996,-42.969,67.871
1689934107.999,25.391,26.855,20.508,-12.207,60.059
1689934108.003,30.273,29.785,17.090,35.156,15.625
1689934108.007,29.297,34.180,19.043,61.035,-1.953
1689934108.011,34.668,25.391,20.020,19.531,10.254
1689934108.015,36.621,31.250,17.090,-36.621,8.789
1689934108.019,35.156,41.504,18.066,-10.742,-7.324
1689934108.023,47.363,43.457,19.043,55.664,50.293
1689934108.027,49.316,45.898,20.996,83.496,91.309
1689934108.031,40.039,37.598,25.391,31.250,43.457
1689934108.035,29.785,33.691,22.949,-17.090,39.551
1689934108.038,29.297,31.738,20.508,7.812,38.086
1689934108.042,39.062,26.855,21.973,56.641,39.062
1689934108.046,28.320,35.645,18.066,64.453,42.969
1689934108.050,21.484,35.156,14.648,20.996,29.785
1689934108.054,24.414,30.762,18.066,-24.414,29.785
1689934108.058,28.809,32.715,20.020,-13.672,16.602
1689934108.062,36.133,27.832,19.043,45.410,27.832
1689934108.066,40.039,23.926,23.438,95.215,18.555
1689934108.070,37.598,21.973,25.879,60.059,30.762
1689934108.074,28.809,25.391,22.949,-8.301,32.715
1689934108.078,29.297,31.738,21.973,-9.766,41.504
1689934108.082,40.039,24.902,23.438,43.945,60.059
1689934108.085,42.969,26.855,28.320,100.098,53.223
1689934108.089,41.992,40.039,29.785,74.219,48.340
1689934108.093,32.227,24.902,27.344,-1.465,50.781
1689934108.097,28.809,17.090,27.344,-20.020,24.414
1689934108.101,26.855,30.273,25.391,0.977,28.320
1689934108.105,34.180,32.715,20.020,59.570,86.914
1689934108.109,35.645,36.133,17.578,62.988,81.543
1689934108.113,17.578,37.598,19.531,-2.930,-13.184
1689934108.117,23.438,36.621,19.043,-30.762,-45.898
1689934108.121,35.645,35.156,17.090,5.371,-3.418
1689934108.125,39.551,32.227,17.090,61.035,9.766
1689934108.129,49.805,27.832,17.578,53.711,39.551
1689934108.132,39.551,24.902,19.043,-0.977,28.809
1689934108.136,25.879,24.902,18.555,-25.391,13.184
1689934108.140,28.809,28.320,16.602,8.789,41.016
1689934108.144,46.387,38.086,25.879,70.312,89.844
1689934108.148,49.805,36.133,30.273,71.289,24.902
1689934108.152,41.992,31.738,24.902,22.949,-15.625
1689934108.156,41.504,34.180,25.391,-10.254,-8.301
1689934108.160,39.551,29.785,25.391,9.766,-3.418
1689934108.164,41.016,28.320,35.156,77.637,77.637
1689934108.168,42.969,34.180,41.016,87.891,57.129
1689934108.172,36.621,30.762,42.480,21.484,-20.020
1689934108.176,33.691,24.902,46.387,-16.113,21.484
1689934108.179,29.785,25.879,47.363,5.859,77.148
1689934108.183,35.645,21.973,42.969,62.012,24.414
1689934108.187,41.504,20.996,40.527,82.031,29.297
1689934108.191,34.668,35.156,41.016,21.484,21.973
1689934108.195,23.926,38.574,38.086,-32.227,-25.391
1689934108.199,20.996,27.832,39.551,-14.648,4.883
1689934108.203,34.180,22.461,40.039,52.246,65.430
1689934108.207,42.969,28.320,38.574,87.891,81.055
1689934108.211,41.016,33.691,37.109,48.828,46.875
1689934108.215,33.691,27.344,33.691,-11.719,10.742
1689934108.219,26.367,18.555,29.785,-12.695,49.805
1689934108.223,26.855,15.625,32.227,41.504,87.891
1689934108.226,29.785,29.785,37.598,82.031,78.125
1689934108.230,28.809,15.137,38.574,60.547,53.711
1689934108.234,24.414,-0.977,35.645,3.418,12.695
1689934108.238,16.602,25.391,33.691,-5.371,59.082
1689934108.242,18.066,37.598,34.668,36.621,103.027
1689934108.246,37.109,45.898,29.297,72.266,75.195
1689934108.250,35.645,39.551,25.879,52.734,16.602
1689934108.254,26.855,35.156,33.203,8.789,-34.668
1689934108.258,28.809,42.969,37.109,-12.695,-19.531
1689934108.262,23.438,30.762,33.203,22.949,15.137
1689934108.266,27.832,23.926,32.227,65.430,0.488
1689934108.270,35.645,30.273,33.203,52.734,-35.156
1689934108.273,34.180,39.062,33.691,4.395,-1.953
1689934108.277,28.809,41.992,36.621,-33.203,50.293
1689934108.281,34.180,37.109,36.621,8.301,86.426
1689934108.285,52.246,20.996,37.598,71.289,105.957
1689934108.289,45.410,12.695,39.551,69.824,41.992
1689934108.293,21.484,19.043,40.039,18.066,61.523
1689934108.297,21.973,24.902,39.551,-35.156,97.656
1689934108.301,25.391,17.578,41.016,-12.207,27.832
1689934108.305,30.762,10.742,41.016,58.594,-20.508
1689934108.309,31.738,17.578,37.598,82.520,3.418
1689934108.313,25.391,34.180,32.715,32.227,28.320
1689934108.317,26.367,42.480,29.785,-15.625,20.020
1689934108.320,39.062,39.062,31.738,13.672,10.742
1689934108.324,53.223,35.645,34.668,65.918,18.555
1689934108.328,48.340,23.926,36.621,77.637,76.660
1689934108.332,36.133,23.926,34.668,30.273,62.012
1689934108.336,33.203,33.691,29.297,-33.691,24.902
1689934108.340,37.109,26.855,26.367,-17.578,-6.836
1689934108.344,33.691,26.855,25.391,41.016,-18.066
1689934108.348,27.832,28.809,28.809,60.059,25.879
1689934108.352,20.996,22.949,26.855,24.414,30.762
1689934108.356,3.418,25.879,22.461,-34.180,21.973
1689934108.360,4.395,30.762,20.508,-34.180,22.461
1689934108.364,22.949,32.715,19.043,27.344,46.875
1689934108.368,22.949,23.438,20.020,62.012,73.242
1689934108.372,20.508,19.531,21.973,30.762,47.852
1689934108.375,13.184,35.645,22.461,-25.879,-1.465
1689934108.379,10.742,32.227,22.949,-25.391,-25.879
1689934108.383,14.160,28.809,21.484,37.109,1.953
1689934108.387,14.160,39.062,24.414,65.918,15.625
1689934108.391,18.066,39.551,26.855,44.922,28.809
1689934108.395,7.324,32.227,25.391,-6.348,30.762
1689934108.399,-3.418,23.438,28.320,-17.578,7.812
1689934108.403,7.324,9.766,33.691,31.250,22.949
1689934108.407,20.020,11.230,38.086,64.941,24.902
1689934108.411,19.531,24.902,34.180,41.992,6.348
1689934108.415,13.672,27.832,34.668,-21.973,40.527
1689934108.419,12.207,27.344,36.621,-34.668,77.637
1689934108.422,27.344,28.320,34.668,16.602,71.777
1689934108.426,41.016,31.738,29.297,64.453,76.172
1689934108.430,27.344,29.785,23.926,41.992,29.785
1689934108.434,15.625,24.414,26.367,-14.648,0.488
1689934108.438,26.367,22.949,28.320,-34.668,38.086
1689934108.442,31.738,25.391,24.902,2.441,35.156
1689934108.446,34.180,15.625,20.996,64.941,59.570
1689934108.450,36.621,13.672,22.949,61.523,46.387
1689934108.454,27.344,20.996,25.879,7.324,22.949
1689934108.458,22.461,22.949,28.320,-26.855,74.219
1689934108.462,32.227,29.297,27.832,2.441,84.473
1689934108.466,39.551,32.227,27.344,60.059,87.891
1689934108.469,38.086,37.598,29.297,72.266,73.730
1689934108.473,30.273,30.273,27.832,10.254,-11.719
1689934108.477,22.949,15.625,26.855,-46.387,-26.367
1689934108.481,25.391,24.414,29.297,-15.625,55.664
1689934108.485,31.738,36.133,24.414,39.062,77.637
1689934108.489,27.344,39.551,25.391,47.363,26.367
1689934108.493,14.648,41.504,22.461,4.395,16.113
1689934108.497,17.090,38.574,6.348,-37.109,64.453
1689934108.501,45.898,42.969,7.324,6.836,67.383
1689934108.505,72.266,41.504,23.926,77.148,42.969
1689934108.509,60.547,30.273,36.133,84.473,10.742
1689934108.513,34.668,19.043,35.645,39.551,31.250
1689934108.516,16.113,15.137,30.273,-28.320,50.781
1689934108.520,8.301,14.160,29.785,-33.203,20.020
1689934108.524,7.812,14.648,35.156,30.273,-7.812
1689934108.528,11.719,20.020,36.133,60.547,32.227
1689934108.532,-3.418,18.555,40.527,16.113,74.219
1689934108.536,-7.324,18.066,45.898,-39.551,59.570
1689934108.540,-13.184,21.973,41.992,-39.062,-8.789
1689934108.544,-24.902,21.484,44.922,0.977,-42.480
1689934108.548,-15.625,15.625,44.922,53.711,-3.418
1689934108.552,-12.695,15.625,46.387,33.691,49.805
1689934108.556,-21.484,16.113,51.758,-34.180,26.855
1689934108.560,-24.414,17.090,45.898,-45.898,-8.789
1689934108.563,-12.695,20.996,45.898,8.301,-9.766
1689934108.567,-9.766,20.020,45.410,60.547,-3.906
1689934108.571,-9.766,19.043,41.016,41.016,17.578
1689934108.575,-12.695,6.348,41.016,-22.949,50.293
1689934108.579,-10.742,5.859,37.109,-49.316,46.387
1689934108.583,5.859,34.668,29.297,8.301,-34.180
1689934108.587,25.879,43.457,33.691,76.660,-28.809
1689934108.591,20.020,34.668,39.551,58.594,38.086
1689934108.595,6.836,30.273,36.621,-8.301,26.855
1689934108.599,13.184,29.785,39.062,-19.043,68.848
1689934108.603,20.508,32.227,37.598,18.555,109.863
1689934108.607,26.855,37.109,33.691,67.871,54.199
1689934108.610,28.320,41.992,35.156,77.637,26.855
1689934108.614,21.973,41.016,37.109,21.973,80.566
1689934108.618,21.973,39.062,38.086,-22.461,82.031
1689934108.622,16.602,33.203,35.156,8.301,25.391
1689934108.626,15.137,29.297,31.738,65.918,-27.344
1689934108.630,16.113,29.297,33.203,65.918,-31.738
1689934108.634,11.719,35.156,33.691,9.766,-36.621
1689934108.638,8.789,37.109,28.320,-35.156,-16.602
1689934108.642,14.160,34.180,31.738,-8.301,35.156
1689934108.646,29.297,36.133,37.598,79.590,8.789
1689934108.650,34.668,38.574,35.645,90.820,-7.324
1689934108.654,22.461,37.598,30.273,22.461,13.672
1689934108.657,15.625,33.203,30.762,-17.578,52.734
1689934108.661,11.230,27.832,32.715,0.488,75.195
1689934108.665,22.949,28.809,27.832,66.406,65.430
1689934108.669,37.598,26.367,30.762,87.402,25.879
1689934108.673,28.809,22.461,34.668,45.898,29.297
1689934108.677,19.043,16.113,36.621,-15.625,104.492
1689934108.681,28.320,14.648,38.086,-9.277,44.922
1689934108.685,48.340,28.809,37.598,67.383,37.598
1689934108.689,45.410,33.203,37.109,97.168,28.320
1689934108.693,41.016,20.508,33.203,55.176,-18.555
1689934108.697,34.668,20.508,36.133,2.441,32.227
1689934108.701,32.715,38.086,40.527,-0.977,35.156
1689934108.705,39.551,36.621,33.203,51.270,2.441
1689934108.708,39.551,18.555,29.785,89.844,-10.254
1689934108.712,37.109,26.855,36.621,67.871,26.855
1689934108.716,29.785,50.781,37.109,0.488,9.766
1689934108.720,24.414,39.551,34.668,-16.113,5.859
1689934108.724,28.320,28.320,33.203,41.016,58.105
1689934108.728,33.691,41.992,31.250,80.566,30.273
1689934108.732,29.785,44.922,25.879,54.688,9.277
1689934108.736,25.879,42.969,26.855,6.836,46.875
1689934108.740,18.555,42.480,24.902,-16.113,79.590
1689934108.744,26.855,40.039,25.879,25.879,87.891
1689934108.748,39.062,36.621,32.227,86.426,85.938
1689934108.752,32.227,32.227,29.297,71.777,126.953
1689934108.755,21.484,31.250,31.738,-4.883,84.961
1689934108.759,18.066,27.832,35.645,-34.180,-39.551
1689934108.763,29.785,29.297,32.227,24.902,9.766
1689934108.767,42.969,33.203,34.668,82.520,12.207
1689934108.771,42.480,31.738,39.062,75.195,-83.496
1689934108.775,43.457,34.180,36.621,32.227,-46.875
1689934108.779,35.645,33.691,33.203,2.930,3.906
1689934108.783,41.992,28.320,31.738,31.250,-15.625
1689934108.787,58.105,30.762,30.762,90.820,-33.691
1689934108.791,51.758,30.273,30.273,90.820,-25.391
1689934108.795,41.992,29.297,32.227,33.691,11.230
1689934108.799,34.180,36.621,32.715,-4.395,54.688
1689934108.802,33.203,35.156,32.227,22.461,78.613
1689934108.806,44.434,25.391,32.227,80.078,36.621
1689934108.810,42.480,22.949,31.738,85.938,38.086
1689934108.814,27.344,32.715,33.691,35.156,66.406
1689934108.818,21.484,36.133,35.156,-20.508,23.438
1689934108.822,30.273,30.273,30.762,4.883,3.906
1689934108.826,40.039,33.203,30.273,73.730,31.738
1689934108.830,46.387,33.691,28.809,83.496,71.289
1689934108.834,49.805,32.227,20.508,36.621,28.320
1689934108.838,46.387,37.598,20.020,-11.230,-16.602
1689934108.842,37.598,30.762,31.250,-0.977,12.695
1689934108.846,15.625,20.508,42.480,52.246,17.578
1689934108.849,10.742,23.926,43.457,71.777,-13.184
1689934108.853,21.484,27.344,37.598,39.062,57.617
1689934108.857,22.949,27.832,34.180,-15.137,23.438
1689934108.861,26.855,30.762,37.598,-11.230,-62.500
1689934108.865,42.969,32.715,37.598,52.246,23.438
1689934108.869,53.711,33.203,37.109,86.426,31.250
1689934108.873,46.875,24.414,40.527,56.641,-1.953
1689934108.877,41.992,18.555,38.574,-6.836,7.324
1689934108.881,40.039,26.855,36.621,-23.926,-26.855
1689934108.885,39.062,35.645,37.109,50.293,35.645
1689934108.889,44.434,39.062,39.062,97.656,57.617
1689934108.893,38.574,40.527,40.039,73.242,18.066
1689934108.896,30.273,41.016,36.621,7.812,32.227
1689934108.900,25.391,34.180,35.156,-10.742,-2.930
1689934108.904,20.996,31.250,37.598,49.805,2.441
1689934108.908,35.156,36.621,39.551,96.680,33.691
1689934108.912,48.340,35.645,41.504,80.566,41.504
1689934108.916,39.062,31.250,37.109,14.160,-9.766
1689934108.920,24.414,35.156,29.785,-26.367,21.973
1689934108.924,26.855,28.809,33.691,24.414,54.199
1689934108.928,38.086,18.066,37.598,81.543,22.461
1689934108.932,40.527,26.367,34.668,79.102,-10.742
1689934108.936,40.039,33.203,36.621,31.250,5.859
1689934108.940,35.645,27.832,36.621,-8.789,91.309
1689934108.943,38.574,22.461,31.250,20.996,86.914
1689934108.947,47.852,41.016,25.879,75.684,64.453
1689934108.951,53.223,51.758,28.809,81.543,47.363
1689934108.955,42.969,47.363,34.180,22.949,31.738
1689934108.959,37.598,39.551,35.645,-13.672,61.523
1689934108.963,40.039,31.250,35.156,23.438,62.012
1689934108.967,39.551,32.715,33.691,85.449,36.621
1689934108.971,40.039,39.062,32.227,94.727,15.137
1689934108.975,38.574,41.016,33.691,30.273,20.020
1689934108.979,38.086,34.668,34.668,-12.207,-6.348
1689934108.983,40.039,21.973,32.227,15.137,-44.922
1689934108.987,50.781,18.555,34.180,72.266,-16.113
1689934108.990,53.711,26.855,33.203,95.703,-11.230
1689934108.994,41.992,27.344,32.715,43.945,-16.113
1689934108.998,30.273,20.508,41.016,-5.859,-19.043
1689934109.002,31.250,20.020,43.457,6.836,-6.836
1689934109.006,38.086,35.156,38.574,53.223,59.570
1689934109.010,45.898,39.062,37.598,77.637,37.598
1689934109.014,37.598,37.109,38.086,32.227,-11.719
1689934109.018,24.902,36.133,36.133,-18.555,47.363
1689934109.022,20.996,33.203,35.156,-10.742,68.848
1689934109.026,27.344,31.250,32.227,48.340,56.152
1689934109.030,33.203,33.203,31.738,82.520,112.305
1689934109.034,25.391,32.227,30.762,44.922,67.871
1689934109.038,15.625,31.738,30.273,-7.324,-7.812
1689934109.041,22.949,33.691,33.691,1.465,-11.719
1689934109.045,38.086,32.715,37.109,52.734,10.742
1689934109.049,47.852,29.297,34.668,82.520,-3.906
1689934109.053,41.992,28.809,35.156,56.641,8.789
1689934109.057,33.691,35.645,34.180,0.000,37.598
1689934109.061,34.180,31.738,30.762,-10.742,22.461
1689934109.065,35.156,30.273,30.273,34.180,76.172
1689934109.069,32.715,28.809,29.785,80.566,127.930
1689934109.073,24.902,23.926,27.344,48.828,68.848
1689934109.077,23.926,34.180,28.320,1.465,8.301
1689934109.081,16.113,39.062,26.855,-11.719,63.477
1689934109.085,15.625,34.180,23.438,14.160,62.988
1689934109.088,30.762,26.367,24.414,61.035,8.789
1689934109.092,32.715,23.926,24.902,57.617,28.809
1689934109.096,20.508,27.832,26.367,3.418,22.461
1689934109.100,9.277,28.320,27.832,-39.551,51.270
1689934109.104,13.672,30.273,27.832,10.254,86.426
1689934109.108,22.949,31.250,30.762,75.684,30.762
1689934109.112,32.715,32.715,30.273,54.199,-15.625
1689934109.116,35.645,34.180,24.902,-3.418,9.277
1689934109.120,28.809,25.391,21.973,-34.180,-5.859
1689934109.124,33.691,22.949,26.855,4.883,-28.809
1689934109.128,36.621,34.668,26.367,70.801,41.504
1689934109.132,35.156,37.109,21.484,68.359,75.195
1689934109.135,25.879,34.180,23.926,12.207,46.875
1689934109.139,21.484,31.738,23.438,-28.809,-10.254
1689934109.143,23.926,29.785,20.508,-15.137,-9.766
1689934109.147,27.832,36.133,20.020,48.340,79.102
1689934109.151,29.297,39.062,28.809,74.219,68.848
1689934109.155,17.578,31.250,32.715,24.902,-14.648
1689934109.159,12.207,29.785,27.832,-23.438,26.367
1689934109.163,14.648,33.691,23.926,-20.020,17.090
1689934109.167,19.043,33.203,25.391,42.480,10.742
1689934109.171,20.996,26.367,29.297,66.895,16.113
1689934109.175,19.531,20.996,33.691,30.273,3.418
1689934109.179,12.207,24.902,34.180,-16.602,53.711
1689934109.182,7.324,23.926,32.227,-13.184,57.617
1689934109.186,17.090,14.648,32.227,40.527,32.227
1689934109.190,26.367,12.207,35.156,71.289,9.766
1689934109.194,21.484,17.578,39.062,34.668,-3.418
1689934109.198,7.812,27.344,36.621,-20.996,20.508
1689934109.202,8.301,31.250,32.227,-17.090,54.199
1689934109.206,18.066,23.926,29.297,36.621,61.523
1689934109.210,28.320,23.926,27.344,78.125,45.898
1689934109.214,26.367,36.133,28.809,50.781,34.668
1689934109.218,24.414,38.086,31.250,-1.465,10.254
1689934109.222,24.414,36.133,31.250,-18.555,-5.859
1689934109.226,26.855,35.645,33.691,35.645,45.898
1689934109.229,36.133,30.762,36.621,77.148,51.270
1689934109.233,42.480,33.691,35.645,56.641,36.621
1689934109.237,33.691,34.180,35.156,9.277,39.062
1689934109.241,17.578,30.273,34.180,-30.273,3.418
1689934109.245,28.809,20.996,30.273,10.254,-42.969
1689934109.249,39.062,-4.883,30.273,62.500,23.926
1689934109.253,40.039,8.301,31.738,50.781,71.289
1689934109.257,28.320,48.340,26.367,-0.488,47.852
1689934109.261,24.414,52.246,28.809,-31.250,50.781
1689934109.265,36.621,48.828,30.762,11.719,65.918
1689934109.269,47.363,48.828,27.344,64.941,86.914
1689934109.273,47.852,46.387,33.203,60.547,85.449
1689934109.276,33.691,37.109,34.668,11.719,48.340
1689934109.280,22.949,34.180,30.762,-30.273,21.484
1689934109.284,22.949,35.645,29.297,-1.465,-37.109
1689934109.288,31.738,31.250,30.762,59.082,-6.836
1689934109.292,33.691,28.809,39.551,70.801,66.895
1689934109.296,24.902,26.367,44.434,24.414,33.203
1689934109.300,22.461,29.785,44.922,-22.461,26.367
1689934109.304,25.879,32.715,49.316,-1.953,38.574
1689934109.308,24.414,30.273,47.852,56.152,28.809
1689934109.312,20.508,28.320,49.805,60.547,24.902
1689934109.316,10.254,35.645,53.711,3.418,39.062
1689934109.320,-8.301,34.668,42.480,-56.152,26.855
1689934109.323,-19.043,35.156,44.922,-46.875,28.809
1689934109.327,-18.066,43.457,47.852,-1.465,2.930
1689934109.331,-28.320,43.457,38.574,-0.977,-28.809
1689934109.335,-42.480,49.316,38.574,-29.785,2.930
1689934109.339,-50.781,37.598,39.551,-87.891,12.695
1689934109.343,-54.199,30.762,36.621,-89.844,22.461
1689934109.347,-55.664,50.293,33.203,-39.062,74.707
1689934109.351,-58.594,58.594,39.551,-17.578,60.547
1689934109.355,-67.383,57.129,39.062,-53.223,-19.043
1689934109.359,-73.242,67.871,35.645,-112.793,-30.762
1689934109.363,-74.219,66.895,35.156,-115.234,89.355
1689934109.367,-50.293,54.688,33.203,-46.875,60.547
1689934109.370,-23.438,38.086,32.227,10.254,-45.898
1689934109.374,-35.156,24.414,29.785,-11.230,0.000
1689934109.378,-40.039,33.203,23.438,-61.523,40.039
1689934109.382,-21.973,41.504,21.484,-65.430,46.387
1689934109.386,-5.371,46.387,22.461,-14.160,69.336
1689934109.390,11.230,28.809,25.391,44.434,41.504
1689934109.394,4.395,-3.418,30.273,46.387,8.301
1689934109.398,-7.324,8.301,29.785,-19.531,2.441
1689934109.402,2.441,29.297,25.879,-38.086,7.812
1689934109.406,12.695,29.297,25.879,15.137,3.906
1689934109.410,21.484,25.879,22.949,62.012,-28.809
1689934109.414,31.250,21.484,20.020,68.848,76.172
1689934109.418,35.156,17.090,22.949,14.648,76.172
1689934109.421,38.086,13.184,24.414,-5.859,-40.527
1689934109.425,51.270,14.160,20.996,32.227,0.000
1689934109.429,56.152,15.625,19.043,75.195,54.688
1689934109.433,53.223,15.137,19.043,78.125,-11.719
1689934109.437,53.711,14.160,22.949,23.438,-23.926
1689934109.441,46.387,12.207,25.391,-3.906,41.016
1689934109.445,41.992,16.113,20.020,14.648,88.867
1689934109.449,44.922,17.090,18.066,68.359,91.309
1689934109.453,47.852,19.043,17.578,88.379,77.148
1689934109.457,44.922,9.766,17.578,33.203,55.664
1689934109.461,38.574,13.184,17.578,0.488,35.645
1689934109.465,42.480,22.949,22.461,21.484,28.320
1689934109.468,50.781,20.996,24.902,69.336,36.621
1689934109.472,52.734,18.555,23.926,90.332,47.852
1689934109.476,47.363,16.113,24.902,43.457,5.371
1689934109.480,33.203,10.742,25.879,0.000,-13.672
1689934109.484,30.762,4.395,28.809,12.207,41.992
1689934109.488,44.922,-0.488,33.691,77.148,65.430
1689934109.492,50.781,0.000,36.621,113.281,19.531
1689934109.496,46.875,9.766,32.715,55.176,-0.488
1689934109.500,42.969,23.438,33.203,0.000,-17.090
1689934109.504,48.828,31.738,36.133,14.648,2.930
1689934109.508,52.246,30.273,33.203,72.266,39.551
1689934109.512,58.105,22.949,28.809,109.863,48.828
1689934109.515,53.223,18.555,28.320,72.266,65.918
1689934109.519,45.410,19.043,31.738,12.695,70.312
1689934109.523,48.828,24.414,31.738,5.371,10.254
1689934109.527,50.781,26.855,31.738,63.965,-26.367
1689934109.531,53.711,22.949,35.156,112.305,23.438
1689934109.535,45.898,23.926,31.738,69.336,-5.371
1689934109.539,34.668,17.578,28.809,0.977,-1.953
1689934109.543,33.203,10.742,31.738,-9.277,101.074
1689934109.547,46.387,20.508,28.809,41.016,62.012
1689934109.551,59.082,29.785,27.832,92.285,-5.371
1689934109.555,41.992,32.227,30.273,72.266,-0.977
1689934109.559,30.273,32.715,29.785,7.812,37.598
1689934109.562,28.809,33.203,33.203,-7.812,65.430
1689934109.566,34.180,33.691,30.762,36.133,29.785
1689934109.570,43.457,31.738,31.738,78.613,15.625
1689934109.574,43.945,27.344,37.598,65.918,58.105
1689934109.578,33.203,24.902,36.133,10.742,74.707
1689934109.582,30.273,26.367,37.598,-18.066,84.473
1689934109.586,44.434,26.855,41.016,20.996,67.383
1689934109.590,50.293,24.414,44.434,90.332,-27.344
1689934109.594,44.922,30.762,48.340,83.008,-34.668
1689934109.598,38.574,41.504,47.363,17.090,26.367
1689934109.602,41.016,37.598,39.551,-14.648,50.781
1689934109.606,54.688,27.832,37.598,24.414,54.199
1689934109.609,57.129,31.250,43.457,93.750,4.395
1689934109.613,53.711,32.227,47.363,88.379,17.578
1689934109.617,42.480,32.227,44.922,11.719,18.066
1689934109.621,27.344,29.785,37.598,-44.434,11.230
1689934109.625,34.668,25.879,35.156,-13.184,2.930
1689934109.629,49.316,28.809,40.527,71.777,-0.488
1689934109.633,52.246,32.715,38.086,89.355,16.602
1689934109.637,46.387,11.230,37.109,41.504,-27.832
1689934109.641,38.086,-5.371,37.109,-4.883,-23.926
1689934109.645,41.016,21.484,35.645,9.277,-3.418
1689934109.649,40.039,37.109,36.621,72.266,41.992
1689934109.653,38.574,36.621,37.109,98.145,94.727
1689934109.656,34.180,31.738,38.574,39.062,47.363
1689934109.660,29.297,30.762,39.551,-22.461,9.277
1689934109.664,25.391,34.668,37.109,-10.254,36.621
1689934109.668,34.180,34.180,32.715,54.199,6.836
1689934109.672,44.922,32.715,34.180,90.332,34.668
1689934109.676,35.645,30.273,38.086,35.645,41.992
1689934109.680,26.855,20.508,41.992,-4.883,21.484
1689934109.684,24.902,19.531,44.434,-1.953,-27.344
1689934109.688,34.668,26.367,42.480,37.109,-53.223
1689934109.692,45.410,25.391,40.527,84.473,28.320
1689934109.696,48.828,30.762,39.062,67.383,36.133
1689934109.700,35.645,33.203,39.551,14.160,26.367
1689934109.703,33.691,31.250,33.691,-3.418,23.438
1689934109.707,44.434,30.762,25.391,42.969,0.000
1689934109.711,47.363,21.973,24.902,91.797,40.039
1689934109.715,40.527,18.555,28.809,68.359,95.703
1689934109.719,28.320,28.809,27.344,-4.395,74.707
1689934109.723,29.297,38.574,24.902,-24.902,27.832
1689934109.727,30.273,32.715,25.391,26.367,4.883
1689934109.731,40.039,26.855,29.297,87.891,-36.133
1689934109.735,47.363,27.832,31.250,83.496,8.789
1689934109.739,34.668,26.367,27.832,8.789,63.477
1689934109.743,31.250,26.855,27.344,-33.203,53.223
1689934109.747,33.691,23.438,31.250,19.531,15.625
1689934109.751,40.527,20.508,35.156,92.285,22.461
1689934109.754,42.969,17.578,36.621,92.773,8.789
1689934109.758,45.898,21.484,38.086,28.809,-37.109
1689934109.762,41.504,33.203,36.133,-24.414,29.297
1689934109.766,31.250,38.574,34.180,6.836,47.852
1689934109.770,36.621,40.039,34.668,68.848,9.277
1689934109.774,43.945,35.645,40.527,70.312,29.297
1689934109.778,46.875,33.203,44.922,19.043,14.160
1689934109.782,34.668,32.227,43.945,-15.625,5.859
1689934109.786,37.109,29.297,46.875,14.160,62.500
1689934109.790,50.293,29.785,47.852,80.566,27.832
1689934109.794,46.387,26.367,38.574,94.238,-3.906
1689934109.798,35.156,28.809,32.227,33.691,16.113
1689934109.801,25.879,34.180,33.203,-20.020,-1.465
1689934109.805,36.133,37.109,41.504,8.301,8.789
1689934109.809,39.062,26.367,37.109,76.172,44.922
1689934109.813,26.855,13.672,29.785,88.379,-19.531
1689934109.817,24.414,19.531,29.785,33.691,22.461
1689934109.821,15.625,22.461,30.762,-30.762,80.078
1689934109.825,21.484,24.414,32.715,-33.203,22.461
1689934109.829,29.297,20.020,36.133,31.738,12.695
1689934109.833,20.020,7.324,34.180,73.730,0.488
1689934109.837,12.207,18.555,30.273,31.738,-50.293
1689934109.841,12.695,38.574,28.809,-26.855,49.316
1689934109.845,14.160,41.992,27.832,-24.902,128.906
1689934109.848,24.902,36.133,31.250,23.438,37.598
1689934109.852,30.762,34.668,32.227,67.383,19.531
1689934109.856,23.926,24.902,30.762,50.293,115.723
1689934109.860,22.949,17.578,29.297,-13.672,101.074
1689934109.864,31.738,27.832,28.809,-18.066,94.727
1689934109.868,33.691,29.785,33.691,43.945,125.977
1689934109.872,31.738,29.297,39.062,95.215,63.965
1689934109.876,30.273,29.785,42.480,74.707,5.371
1689934109.880,22.461,25.879,39.551,-4.883,28.320
1689934109.884,22.461,29.297,33.691,-30.762,50.293
1689934109.888,39.551,32.227,34.668,22.949,50.293
1689934109.892,49.805,27.344,37.109,64.941,7.324
1689934109.895,42.969,30.273,33.203,53.223,84.473
1689934109.899,34.180,31.738,30.273,-6.836,93.750
1689934109.903,30.273,20.020,31.738,-32.227,-59.082
1689934109.907,38.086,7.812,26.367,20.996,-20.996
1689934109.911,41.504,20.020,21.973,75.195,33.203
1689934109.915,39.551,41.504,26.367,67.871,-4.883
1689934109.919,27.832,40.039,26.367,0.000,-40.039
1689934109.923,9.277,33.203,21.973,-38.086,-39.062
1689934109.927,13.184,26.855,23.926,7.324,0.977
1689934109.931,21.973,28.809,24.414,65.918,33.203
1689934109.935,22.461,41.992,22.461,64.941,50.293
1689934109.939,24.902,46.387,26.367,5.371,53.223
1689934109.942,20.996,43.945,26.367,-37.598,44.434
1689934109.946,24.414,40.039,24.414,-10.254,28.809
1689934109.950,34.668,36.133,27.344,59.570,13.184
1689934109.954,39.551,28.320,33.203,77.148,30.273
1689934109.958,30.762,20.020,36.621,26.855,-23.926
1689934109.962,23.926,24.902,31.250,-17.090,-41.992
1689934109.966,25.391,34.180,32.715,4.395,44.922
1689934109.970,29.297,32.227,37.598,68.848,68.359
1689934109.974,35.645,24.414,38.086,89.844,6.348
1689934109.978,31.250,21.973,37.598,49.316,47.363
1689934109.982,23.926,20.020,39.062,-4.395,59.570
1689934109.986,26.855,25.879,36.621,-3.906,13.184
1689934109.989,36.621,36.133,37.109,61.035,29.785
1689934109.993,38.574,33.203,43.945,98.145,87.402
1689934109.997,22.949,28.320,45.410,44.434,64.453
1689934110.001,20.996,28.320,44.434,-19.531,17.090
1689934110.005,27.832,27.344,41.016,-15.625,46.387
1689934110.009,31.250,35.156,37.598,39.062,13.672
1689934110.013,32.715,36.133,38.574,81.543,28.809
1689934110.017,24.902,31.738,39.062,44.922,43.457
1689934110.021,12.695,35.645,40.527,-23.926,-22.461
1689934110.025,2.441,41.504,39.062,-31.738,12.695
1689934110.029,9.766,41.016,30.762,23.438,18.555
1689934110.033,27.344,35.156,29.297,57.617,-0.488
1689934110.036,26.367,34.180,30.762,22.461,-21.484
1689934110.040,12.207,38.574,30.273,-27.832,-4.395
1689934110.044,8.789,36.621,32.715,-39.551,31.738
1689934110.048,17.090,20.996,36.133,11.719,8.301
1689934110.052,26.367,13.672,35.645,62.988,56.641
1689934110.056,18.555,24.902,38.086,43.457,62.500
1689934110.060,16.113,32.227,37.109,-3.906,35.156
1689934110.064,25.391,39.551,38.574,-20.996,39.551
1689934110.068,24.414,47.363,41.504,21.973,28.320
1689934110.072,37.109,44.922,39.551,81.543,72.754
1689934110.076,45.898,42.969,41.016,69.824,42.480
1689934110.080,36.133,43.457,36.621,10.742,-10.254
1689934110.083,31.738,40.527,35.156,-15.625,-41.504
1689934110.087,36.621,35.156,36.133,16.602,7.812
1689934110.091,41.504,32.715,33.203,73.242,78.613
1689934110.095,45.410,34.668,31.250,74.707,78.125
1689934110.099,33.203,34.668,32.227,15.137,58.105
1689934110.103,27.344,30.273,30.762,-18.555,26.367
1689934110.107,38.574,26.855,30.762,4.883,16.602
1689934110.111,39.551,30.762,28.809,60.059,34.668
1689934110.115,40.527,28.809,28.809,79.102,66.406
1689934110.119,41.992,32.715,35.156,24.414,48.828
1689934110.123,41.992,41.504,41.016,-20.996,-4.883
1689934110.127,44.434,39.551,45.410,18.066,8.301
1689934110.131,46.387,32.715,49.805,87.891,31.250
1689934110.134,46.875,23.438,41.992,96.191,24.414
1689934110.138,40.039,22.461,33.691,41.504,17.090
1689934110.142,32.227,24.414,39.551,-10.254,7.324
1689934110.146,36.133,26.855,40.039,-1.465,1.953
1689934110.150,42.480,32.227,37.109,56.152,45.898
1689934110.154,41.504,27.344,33.691,79.102,91.797
1689934110.158,34.668,21.484,31.738,29.785,42.969
1689934110.162,20.508,25.391,33.691,-21.973,45.898
1689934110.166,14.160,29.785,37.598,-18.555,68.848
1689934110.170,21.973,29.297,37.109,33.691,76.172
1689934110.174,31.738,29.297,34.668,58.594,79.590
1689934110.178,28.809,28.809,35.645,33.203,38.574
1689934110.181,19.531,26.367,36.133,-21.973,60.547
1689934110.185,20.020,26.855,34.668,-30.273,90.820
1689934110.189,33.691,23.926,31.738,33.203,24.902
1689934110.193,43.457,30.273,35.645,81.055,-4.395
1689934110.197,35.645,42.969,35.645,52.246,22.949
1689934110.201,17.090,39.551,27.832,-15.137,17.578
1689934110.205,15.625,36.133,29.785,-21.484,14.160
1689934110.209,30.762,37.598,32.227,32.227,37.598
1689934110.213,34.668,30.762,37.598,74.707,56.152
1689934110.217,32.715,23.438,42.480,72.266,47.363
1689934110.221,32.715,24.414,40.527,16.113,0.000
1689934110.225,33.691,26.855,41.992,-11.719,-33.203
1689934110.228,33.203,31.250,39.551,36.621,-8.301
1689934110.232,27.344,33.691,33.203,80.566,65.430
1689934110.236,32.715,34.180,28.320,63.965,65.430
1689934110.240,26.367,33.691,25.879,17.578,46.875
1689934110.244,30.762,24.902,25.879,-8.789,86.914
1689934110.248,36.621,24.414,25.391,1.953,10.254
1689934110.252,41.016,31.738,22.949,70.312,-8.789
1689934110.256,40.527,34.668,24.414,92.285,46.875
1689934110.260,35.645,25.879,21.973,17.090,30.273
1689934110.264,29.785,25.391,20.508,-15.625,25.879
1689934110.268,24.902,34.180,24.902,7.812,70.801
1689934110.272,27.832,30.762,25.391,42.969,66.406
1689934110.275,36.621,24.414,28.809,69.824,57.617
1689934110.279,35.156,20.508,28.320,27.344,12.695
1689934110.283,24.414,32.715,23.926,-22.949,-20.020
1689934110.287,33.691,39.551,23.926,-8.301,56.641
1689934110.291,33.691,31.738,24.414,47.363,47.363
1689934110.295,20.996,25.879,21.484,62.988,-12.695
1689934110.299,21.973,23.438,21.484,13.184,21.484
1689934110.303,15.137,30.762,24.414,-40.039,15.625
1689934110.307,11.230,38.574,27.832,-24.414,-16.602
1689934110.311,17.090,30.762,29.785,34.668,6.348
1689934110.315,25.879,17.578,26.855,54.688,19.531
1689934110.319,18.066,17.090,29.785,13.184,-19.043
1689934110.322,-0.488,23.438,27.832,-40.039,-15.137
1689934110.326,0.488,32.715,23.438,-35.645,-19.531
1689934110.330,14.648,33.203,23.926,20.508,27.832
1689934110.334,15.137,27.832,24.414,55.176,10.254
1689934110.338,12.207,29.785,24.414,34.180,-13.184
1689934110.342,13.672,32.227,23.438,-21.973,68.848
1689934110.346,11.719,28.320,24.414,-41.992,32.715
1689934110.350,19.531,31.738,22.949,14.160,25.391
1689934110.354,24.902,37.109,23.438,70.312,59.570
1689934110.358,20.020,39.062,25.879,35.156,21.973
1689934110.362,8.301,33.691,24.414,-27.344,-34.180
1689934110.366,9.766,25.391,23.926,-29.785,29.785
1689934110.369,8.301,25.879,24.414,-9.277,67.383
1689934110.373,2.441,23.926,26.367,38.574,64.941
1689934110.377,5.371,20.020,32.227,37.598,113.281
1689934110.381,7.324,24.902,29.785,-28.320,85.938
1689934110.385,0.977,25.391,28.320,-50.293,75.684
1689934110.389,6.348,22.949,34.668,-8.301,31.738
1689934110.393,15.625,19.043,32.227,46.875,16.602
1689934110.397,10.742,19.043,35.156,52.246,71.777
1689934110.401,12.207,30.762,41.016,2.930,72.754
1689934110.405,10.254,21.484,40.039,-30.762,61.035
1689934110.409,9.766,12.207,39.062,1.465,62.988
1689934110.413,22.461,17.090,39.551,69.336,40.039
1689934110.416,30.762,20.996,40.527,83.008,49.805
1689934110.420,33.203,30.273,38.574,16.113,40.039
1689934110.424,36.621,34.668,37.109,-25.879,65.918
1689934110.428,24.902,34.180,34.180,-1.465,22.949
1689934110.432,31.250,32.715,32.227,62.500,-16.602
1689934110.436,43.457,33.203,35.156,76.660,41.504
1689934110.440,38.086,38.086,38.574,12.207,8.301
1689934110.444,27.832,38.574,40.527,-28.809,-19.043
1689934110.448,31.738,36.621,41.016,-3.906,-1.465
1689934110.452,36.621,36.621,41.504,61.035,25.879
1689934110.456,31.250,23.438,44.434,100.098,61.523
1689934110.460,26.855,10.254,39.062,41.016,20.996
1689934110.464,18.555,23.926,36.133,-33.691,27.344
1689934110.467,12.695,34.180,38.574,-29.785,52.246
1689934110.471,16.113,31.250,37.598,35.645,-5.859
1689934110.475,20.020,26.367,40.527,73.730,12.207
1689934110.479,16.602,23.438,41.504,30.273,55.664
1689934110.483,6.836,25.879,40.527,-32.227,96.191
1689934110.487,4.883,28.320,46.387,-42.969,111.816
1689934110.491,6.348,27.344,48.340,18.555,80.078
1689934110.495,7.812,24.414,49.805,58.105,52.246
1689934110.499,6.348,27.832,48.828,20.020,77.148
1689934110.503,1.465,29.297,40.039,-41.016,104.980
1689934110.507,-1.953,27.832,38.574,-51.270,78.125
1689934110.511,11.230,31.738,37.109,4.395,24.902
1689934110.514,4.395,31.738,43.457,36.133,-8.301
1689934110.518,-10.254,31.250,43.945,4.883,24.414
1689934110.522,-20.996,32.715,31.738,-62.500,44.922
1689934110.526,-35.156,41.504,29.297,-87.891,29.785
1689934110.530,-24.414,49.805,35.645,-37.109,-34.180
1689934110.534,-15.625,50.293,38.574,20.020,-50.293
1689934110.538,-31.738,49.316,41.992,-2.441,25.391
1689934110.542,-59.082,49.805,49.316,-81.055,74.219
1689934110.546,-68.848,56.641,40.527,-131.348,47.363
1689934110.550,-59.570,64.941,29.785,-89.844,-0.977
1689934110.554,-37.109,67.871,35.645,-4.395,37.598
1689934110.558,-30.762,65.430,46.875,-16.113,-6.348
1689934110.561,-51.270,58.594,46.875,-93.262,-13.184
1689934110.565,-54.688,57.617,37.109,-120.117,39.062
1689934110.569,-36.133,53.711,37.598,-65.430,45.898
1689934110.573,-36.621,39.551,38.086,0.488,-21.484
1689934110.577,-32.715,37.109,22.461,-9.766,1.953
1689934110.581,-20.508,44.434,14.648,-55.176,66.895
1689934110.585,-17.090,41.016,12.207,-74.707,32.227
1689934110.589,-2.930,36.621,10.742,-17.578,45.410
1689934110.593,11.719,40.527,13.184,53.711,39.551
1689934110.597,25.879,41.504,15.625,62.988,14.160
1689934110.601,19.043,34.180,18.555,12.695,30.273
1689934110.605,12.695,31.738,17.578,-35.156,57.617
1689934110.608,25.879,27.344,15.625,-1.953,15.137
1689934110.612,41.992,17.090,14.648,67.383,-61.035
1689934110.616,49.316,19.043,9.766,83.496,-18.066
1689934110.620,38.086,22.461,3.906,41.504,13.672
1689934110.624,26.855,20.020,7.324,-9.766,9.766
1689934110.628,29.785,9.277,13.184,-3.418,-3.418
1689934110.632,48.828,-3.418,17.090,77.148,10.254
1689934110.636,57.129,-1.953,17.578,115.234,26.855
1689934110.640,52.246,11.719,17.578,57.129,3.906
1689934110.644,40.039,22.461,20.508,-14.648,-18.066
1689934110.648,44.434,19.043,21.973,-1.465,0.000
1689934110.652,58.105,18.066,24.414,75.195,16.602
1689934110.655,62.500,18.066,23.926,112.305,25.391
1689934110.659,48.828,16.113,22.461,68.848,85.938
1689934110.663,43.945,15.137,26.855,-5.371,84.473
1689934110.667,47.363,7.812,30.762,-4.395,8.789
1689934110.671,54.199,11.230,24.414,63.965,-41.016
1689934110.675,58.594,16.113,20.020,102.051,-9.277
1689934110.679,56.152,15.137,25.879,73.242,12.695
1689934110.683,43.457,14.160,32.715,8.789,16.602
1689934110.687,41.016,15.625,36.621,14.160,44.922
1689934110.691,51.270,15.625,32.227,79.102,52.734
1689934110.695,59.570,14.160,31.738,111.328,37.109
1689934110.699,61.523,14.160,30.762,73.242,-12.695
1689934110.702,49.316,17.090,26.855,11.719,-34.668
1689934110.706,49.316,24.902,28.809,4.883,48.828
1689934110.710,61.035,20.020,26.367,58.594,121.094
1689934110.714,59.082,9.277,20.508,117.188,111.816
1689934110.718,56.641,3.906,20.508,104.980,70.312
1689934110.722,55.176,13.184,19.043,35.156,32.227
1689934110.726,59.082,32.715,17.578,5.371,37.598
1689934110.730,62.988,36.133,17.090,48.828,37.109
1689934110.734,66.406,32.715,16.602,110.840,62.500
1689934110.738,59.570,34.180,17.090,110.840,70.801
1689934110.742,45.410,31.738,17.090,37.598,78.125
1689934110.746,37.109,28.320,20.020,-2.930,37.598
1689934110.749,45.898,26.855,20.996,40.039,7.324
1689934110.753,50.293,24.902,20.996,89.844,47.852
1689934110.757,44.434,22.461,21.484,99.121,18.555
1689934110.761,43.945,20.508,21.973,52.246,16.602
1689934110.765,29.785,26.855,23.926,-11.230,36.133
1689934110.769,32.227,29.785,22.949,12.695,28.809
1689934110.773,47.363,25.391,20.996,88.379,-8.301
1689934110.777,44.922,24.902,21.973,105.469,-21.484
1689934110.781,35.645,31.738,24.414,47.852,23.926
1689934110.785,33.691,37.598,28.809,-10.742,63.965
1689934110.789,34.180,36.133,29.785,5.371,33.691
1689934110.793,40.527,34.668,24.902,84.961,66.406
1689934110.796,52.734,21.484,23.438,113.281,85.938
1689934110.800,51.758,5.371,29.297,51.758,76.172
1689934110.804,32.715,19.043,28.320,-13.184,-7.812
1689934110.808,24.902,36.133,22.949,-4.883,1.953
1689934110.812,33.691,41.504,23.926,58.105,49.805
1689934110.816,41.992,37.109,23.438,94.238,4.883
1689934110.820,41.992,32.715,19.531,55.176,-36.133
1689934110.824,28.809,28.809,19.043,-4.395,-15.625
1689934110.828,30.273,34.668,23.438,7.324,18.555
1689934110.832,44.922,30.762,24.414,62.988,-59.082
1689934110.836,40.527,26.367,19.531,109.863,53.711
1689934110.840,41.016,35.156,20.996,75.195,169.434
1689934110.844,42.480,35.645,28.809,2.930,54.688
1689934110.847,36.621,31.738,30.762,-3.906,3.906
1689934110.851,36.621,31.738,28.320,49.316,47.852
1689934110.855,40.527,33.203,30.762,98.633,45.410
1689934110.859,49.316,35.645,29.785,72.754,8.789
1689934110.863,56.641,35.645,30.762,14.160,23.438
1689934110.867,45.410,34.180,29.785,0.977,45.410
1689934110.871,47.852,37.598,26.855,41.992,15.625
1689934110.875,60.547,37.598,26.367,99.121,14.648
1689934110.879,50.781,30.273,26.855,82.031,48.340
1689934110.883,39.062,24.902,27.832,5.859,84.961
1689934110.887,40.039,27.344,27.832,-22.461,77.637
1689934110.891,39.062,31.250,27.344,14.160,57.129
1689934110.894,38.086,27.832,28.809,67.871,34.668
1689934110.898,33.691,23.438,25.391,56.152,10.742
1689934110.902,20.020,23.438,20.996,-8.789,38.574
1689934110.906,16.113,33.691,19.043,-39.062,36.133
1689934110.910,27.344,39.062,13.184,1.465,6.836
1689934110.914,27.832,27.344,16.113,60.547,50.293
1689934110.918,22.949,31.250,18.066,48.340,75.195
1689934110.922,20.508,36.621,20.996,-7.324,36.621
1689934110.926,15.625,30.762,24.414,-29.297,5.371
1689934110.930,17.578,27.344,25.879,-1.953,-10.254
1689934110.934,25.879,23.438,28.809,59.082,36.621
1689934110.938,32.715,25.879,25.879,78.125,8.789
1689934110.941,38.086,35.156,24.902,41.992,-45.410
1689934110.945,30.762,35.156,22.461,-11.719,-9.766
1689934110.949,30.762,38.086,15.137,-17.090,30.762
1689934110.953,39.062,36.621,13.672,50.293,29.785
1689934110.957,41.504,31.250,12.695,84.961,100.098
1689934110.961,36.133,31.738,15.625,34.668,76.172
1689934110.965,22.461,27.344,23.438,-18.555,41.016
1689934110.969,18.066,23.438,20.020,-6.348,46.387
1689934110.973,29.785,23.438,16.113,54.688,9.766
1689934110.977,39.551,23.438,22.461,79.590,-14.648
1689934110.981,37.109,23.438,24.414,38.574,23.438
1689934110.985,27.832,30.762,23.926,-15.137,40.039
1689934110.988,25.391,36.133,21.484,-16.113,9.277
1689934110.992,35.156,32.227,17.578,36.621,-7.812
1689934110.996,39.551,30.762,19.531,74.707,0.488
1689934111.000,37.109,34.180,22.949,38.574,10.742
1689934111.004,37.109,31.738,23.926,-12.207,-10.254
1689934111.008,30.762,21.484,25.879,-13.184,0.488
1689934111.012,35.645,21.484,22.949,35.645,-68.848
1689934111.016,42.480,33.203,18.066,84.473,-59.570
1689934111.020,32.715,30.762,20.996,53.223,64.453
1689934111.024,24.414,24.414,19.531,-8.789,55.664
1689934111.028,25.391,28.320,18.555,-23.438,25.879
1689934111.032,21.973,34.180,27.344,23.926,65.430
1689934111.035,27.344,31.738,26.855,74.707,55.176
1689934111.039,25.391,20.020,22.461,52.734,74.219
1689934111.043,9.766,21.973,21.973,-1.465,111.816
1689934111.047,21.484,35.645,20.508,-22.461,41.016
1689934111.051,41.016,45.898,25.391,20.508,39.551
1689934111.055,33.691,41.992,21.973,74.219,74.219
1689934111.059,26.367,41.016,17.578,61.523,64.941
1689934111.063,21.484,40.527,23.926,5.371,29.785
1689934111.067,14.160,38.086,26.855,-21.973,38.086
1689934111.071,21.973,28.809,25.391,9.766,47.363
1689934111.075,35.645,22.949,25.391,69.336,1.953
1689934111.079,34.668,23.926,24.414,71.777,11.719
1689934111.082,27.832,22.949,22.949,10.254,16.113
1689934111.086,20.508,29.785,17.090,-25.879,43.945
1689934111.090,23.438,29.785,18.555,-2.441,57.129
1689934111.094,33.203,22.949,20.020,56.641,77.148
1689934111.098,35.156,17.090,15.625,66.895,63.965
1689934111.102,23.926,22.461,20.020,14.648,41.992
1689934111.106,14.648,33.203,24.902,-32.227,16.113
1689934111.110,23.926,36.133,23.438,-15.137,4.395
1689934111.114,33.691,35.156,22.461,58.105,42.480
1689934111.118,31.738,27.344,27.344,77.148,0.488
1689934111.122,28.320,20.020,31.250,32.715,-2.441
1689934111.126,19.531,21.973,30.273,-16.602,-13.672
1689934111.129,15.137,27.832,29.297,-18.066,-27.832
1689934111.133,29.785,23.926,31.738,43.457,10.254
1689934111.137,34.668,23.926,27.344,80.078,9.766
1689934111.141,21.484,25.879,25.879,38.574,9.766
1689934111.145,13.672,27.832,26.855,-24.902,3.418
1689934111.149,37.109,33.203,25.879,-15.625,9.277
1689934111.153,47.363,28.809,33.203,49.805,4.395
1689934111.157,29.785,23.926,25.879,68.359,-0.488
1689934111.161,25.391,22.949,16.113,39.551,41.016
1689934111.165,20.996,19.531,21.973,-9.766,26.855
1689934111.169,19.531,18.066,28.809,-22.949,17.578
1689934111.173,28.320,20.508,29.785,29.297,15.137
1689934111.176,32.715,25.879,24.414,73.242,-11.719
1689934111.180,26.367,23.926,23.926,52.734,-17.578
1689934111.184,14.648,26.367,29.785,-13.672,27.344
1689934111.188,13.184,33.691,32.715,-28.809,95.703
1689934111.192,27.344,30.273,31.738,31.738,104.980
1689934111.196,38.574,26.367,34.180,74.219,31.250
1689934111.200,41.504,22.949,31.738,55.664,27.832
1689934111.204,30.273,27.344,30.273,8.301,98.145
1689934111.208,17.578,30.273,31.738,-14.648,101.074
1689934111.212,28.320,25.879,30.273,31.250,31.738
1689934111.216,44.922,28.320,29.297,84.961,-16.113
1689934111.220,49.805,29.297,27.344,79.102,-31.738
1689934111.224,40.527,23.926,30.762,22.949,-6.836
1689934111.227,35.156,16.602,31.250,-11.719,73.730
1689934111.231,39.062,20.020,28.809,25.391,44.922
1689934111.235,39.062,27.832,30.273,72.754,11.230
1689934111.239,36.133,32.227,35.156,71.777,34.668
1689934111.243,36.133,39.551,40.039,19.043,30.273
1689934111.247,28.809,32.715,35.156,-30.762,17.578
1689934111.251,24.902,34.180,30.762,-2.441,51.270
1689934111.255,30.273,35.156,28.809,55.664,72.266
1689934111.259,30.762,26.367,28.320,69.336,26.855
1689934111.263,20.020,30.762,29.785,13.672,-37.109
1689934111.267,20.508,31.250,28.809,-37.598,-41.504
1689934111.271,19.043,27.344,27.832,-5.371,22.461
1689934111.274,18.066,21.484,29.785,50.781,56.152
1689934111.278,21.973,18.555,30.762,65.430,56.152
1689934111.282,19.043,27.344,34.668,30.273,20.996
1689934111.286,19.043,21.973,36.133,-9.277,1.953
1689934111.290,22.461,14.648,32.227,-0.977,63.965
1689934111.294,31.250,21.484,27.344,46.875,71.777
1689934111.298,37.598,31.738,25.879,85.938,38.086
1689934111.302,38.086,41.016,31.250,55.176,5.859
1689934111.306,19.043,40.039,35.156,-7.324,-14.160
1689934111.310,13.672,33.203,34.180,-12.207,-8.301
1689934111.314,26.367,26.367,32.227,32.715,24.414
1689934111.318,22.949,26.367,31.738,61.035,51.270
1689934111.321,20.508,29.297,32.227,41.016,9.766
1689934111.325,4.883,31.250,24.414,-13.672,20.508
1689934111.329,0.977,34.180,17.578,-34.180,88.379
1689934111.333,9.766,35.156,23.926,18.066,43.945
1689934111.337,13.672,35.645,26.855,67.871,38.086
1689934111.341,17.578,36.133,26.367,36.133,35.645
1689934111.345,16.113,30.273,31.250,-22.949,6.348
1689934111.349,8.301,22.461,29.297,-29.297,57.129
1689934111.353,5.371,18.066,22.461,9.277,73.242
1689934111.357,14.160,29.297,20.020,56.152,74.219
1689934111.361,8.789,24.902,19.043,48.340,50.781
1689934111.365,1.953,23.438,23.438,-9.766,-20.996
1689934111.368,11.719,42.969,26.367,-30.273,9.277
1689934111.372,16.602,45.898,21.484,3.906,70.801
1689934111.376,20.996,42.480,18.066,61.035,28.809
1689934111.380,24.902,40.039,25.391,62.988,35.645
1689934111.384,14.648,41.504,28.320,-4.883,76.172
1689934111.388,16.113,40.527,28.320,-46.875,61.035
1689934111.392,25.391,37.109,27.344,-2.441,69.824
1689934111.396,36.133,34.668,26.855,69.336,78.613
1689934111.400,34.180,30.273,28.809,68.848,63.477
1689934111.404,16.602,29.785,29.785,3.418,35.645
1689934111.408,12.695,28.320,31.250,-23.438,68.848
1689934111.412,28.320,19.043,32.715,7.324,58.105
1689934111.415,43.945,28.809,34.180,59.082,-43.457
1689934111.419,44.922,42.480,35.156,81.055,-26.855
1689934111.423,31.250,41.992,33.203,26.855,8.301
1689934111.427,23.438,43.945,32.227,-22.949,37.109
1689934111.431,28.809,42.480,35.156,2.441,71.777
1689934111.435,44.434,34.180,34.668,67.383,40.039
1689934111.439,42.969,34.668,34.668,91.309,53.711
1689934111.443,37.598,38.574,38.574,34.180,55.176
1689934111.447,37.109,37.598,39.062,-26.855,14.160
1689934111.451,38.086,32.715,34.668,-13.184,28.320
1689934111.455,40.527,34.668,32.227,48.340,10.742
1689934111.459,35.156,30.273,36.621,80.566,40.527
1689934111.462,31.738,19.531,37.598,43.945,47.852
1689934111.466,17.578,30.273,33.691,-16.113,3.906
1689934111.470,11.719,39.062,33.691,-20.508,-8.789
1689934111.474,21.973,32.715,33.203,43.457,6.836
1689934111.478,32.227,30.762,34.668,91.797,-31.250
1689934111.482,30.273,31.250,33.203,52.246,-38.574
1689934111.486,21.973,23.438,35.156,-9.766,-1.465
1689934111.490,22.461,21.484,40.527,-12.207,0.000
1689934111.494,29.785,21.484,33.203,43.945,50.293
1689934111.498,35.156,27.344,28.320,82.520,71.289
1689934111.502,24.902,33.203,30.273,48.340,43.457
1689934111.506,6.836,29.297,25.879,-13.184,71.777
1689934111.509,5.859,28.809,19.531,-36.621,82.031
1689934111.513,18.066,31.738,21.973,21.484,16.113
1689934111.517,26.855,37.598,27.832,75.684,76.172
1689934111.521,20.508,46.387,29.785,49.805,29.785
1689934111.525,11.230,43.457,29.297,-19.043,-41.016
1689934111.529,8.301,39.062,28.320,-44.922,20.020
1689934111.533,15.137,41.992,28.320,12.207,34.668
1689934111.537,24.902,41.016,29.785,72.266,43.945
1689934111.541,32.227,22.949,32.227,60.547,26.367
1689934111.545,27.344,11.230,28.809,12.207,25.391
1689934111.549,20.020,20.508,28.809,-25.879,30.273
1689934111.553,30.273,31.738,27.832,6.836,-18.066
1689934111.556,35.645,36.621,17.090,68.359,-16.602
1689934111.560,31.738,34.668,18.555,64.941,24.902
1689934111.564,33.203,33.691,24.902,18.555,65.918
1689934111.568,35.156,34.180,29.297,-20.508,86.914
1689934111.572,37.598,37.598,32.715,7.324,110.840
1689934111.576,40.527,27.832,30.762,69.824,89.355
1689934111.580,37.109,13.672,27.344,73.242,26.367
1689934111.584,20.508,15.137,30.762,20.020,18.555
1689934111.588,8.789,19.043,32.715,-27.344,47.852
1689934111.592,18.066,24.902,31.738,-7.812,65.918
1689934111.596,32.715,24.414,32.715,54.688,33.203
1689934111.600,30.273,22.949,31.738,64.453,-18.066
1689934111.604,21.484,31.250,30.273,18.555,9.277
1689934111.607,22.949,38.574,29.297,-33.691,62.988
1689934111.611,23.926,30.762,27.344,-20.996,37.598
1689934111.615,37.598,20.996,32.227,61.035,57.129
1689934111.619,46.387,16.113,24.902,90.332,80.566
1689934111.623,31.738,18.066,13.672,25.879,-9.277
1689934111.627,24.414,29.785,23.438,-36.621,8.301
1689934111.631,27.832,29.297,31.250,-23.926,-5.371
1689934111.635,32.715,27.344,28.809,38.086,-36.621
1689934111.639,48.340,31.738,27.344,78.613,13.184
1689934111.643,49.805,37.109,29.785,44.922,-24.414
1689934111.647,37.109,34.180,29.785,-16.602,-15.625
1689934111.651,43.457,29.785,29.785,-6.348,27.344
1689934111.654,55.176,27.344,32.715,57.617,3.418
1689934111.658,54.199,26.855,32.715,98.145,54.688
1689934111.662,51.758,33.203,34.180,72.266,24.414
1689934111.666,43.945,37.598,32.715,2.441,33.203
1689934111.670,37.598,37.109,30.762,-10.742,52.734
1689934111.674,43.945,37.109,32.715,41.016,3.418
1689934111.678,47.852,25.391,31.250,85.449,32.227
1689934111.682,42.969,20.508,29.297,64.941,59.082
1689934111.686,30.273,34.668,31.738,-9.766,46.387
1689934111.690,22.461,42.480,35.156,-29.785,40.039
1689934111.694,26.367,37.598,32.715,15.137,33.691
1689934111.698,32.227,29.297,31.250,60.059,-1.953
1689934111.701,37.109,40.039,37.109,62.012,33.691
1689934111.705,29.785,45.410,37.598,3.418,78.125
1689934111.709,18.066,31.250,33.691,-40.527,86.426
1689934111.713,14.648,26.367,34.668,-1.465,71.777
1689934111.717,22.461,28.809,31.738,58.105,22.949
1689934111.721,29.297,25.879,30.273,62.012,5.859
1689934111.725,23.926,22.949,33.691,5.859,37.109
1689934111.729,28.809,26.367,35.645,-38.086,33.203
1689934111.733,34.668,33.691,32.715,-5.371,-5.859
1689934111.737,44.922,35.645,28.809,61.035,-26.855
1689934111.741,53.711,27.832,22.949,82.520,33.691
1689934111.745,49.805,25.879,27.344,28.809,30.762
1689934111.748,39.551,39.551,37.598,-30.762,-36.133
1689934111.752,39.551,45.898,40.039,-0.488,-49.316
1689934111.756,47.363,29.297,37.598,71.289,-18.066
1689934111.760,38.574,25.391,35.645,84.961,-11.719
1689934111.764,35.645,41.504,36.621,29.297,49.805
1689934111.768,36.133,41.016,38.574,-14.648,61.523
1689934111.772,35.645,37.598,32.227,7.812,-4.883
1689934111.776,41.992,37.109,27.832,60.059,-6.836
1689934111.780,43.457,36.621,25.879,74.707,23.926
1689934111.784,36.133,44.922,26.367,27.344,47.363
1689934111.788,33.203,41.992,30.762,-19.043,35.156
1689934111.792,41.016,30.273,32.715,-8.301,48.828
1689934111.795,44.434,33.203,30.762,45.898,48.340
1689934111.799,39.062,40.039,31.738,91.309,30.273
1689934111.803,38.574,37.598,35.645,52.734,37.598
1689934111.807,33.691,32.715,33.691,-7.812,50.781
1689934111.811,34.668,47.363,31.738,-11.719,31.250
1689934111.815,39.551,59.570,29.785,31.738,-44.922
1689934111.819,38.086,58.105,28.809,71.777,-43.457
1689934111.823,43.457,59.570,36.133,47.363,-3.906
1689934111.827,37.109,57.617,38.574,-16.602,26.367
1689934111.831,18.555,53.711,35.645,-30.273,53.223
1689934111.835,27.832,45.898,48.340,23.926,66.406
1689934111.839,33.691,40.039,42.969,64.941,59.570
1689934111.842,19.043,39.062,26.367,25.879,28.320
1689934111.846,5.371,44.434,37.598,-32.227,28.809
1689934111.850,-13.184,43.945,46.875,-52.246,-6.836
1689934111.854,-19.043,45.898,45.410,-10.742,25.391
1689934111.858,-2.441,54.199,41.992,51.758,40.527
1689934111.862,-16.602,54.688,29.785,8.789,32.227
1689934111.866,-50.781,45.898,32.715,-80.078,55.176
1689934111.870,-66.895,52.246,44.434,-104.980,30.762
1689934111.874,-64.453,63.477,42.969,-68.848,32.715
1689934111.878,-65.430,64.941,42.969,-32.227,15.137
1689934111.882,-72.754,65.430,45.410,-52.246,-4.395
1689934111.886,-85.938,69.824,41.016,-110.352,-3.906
1689934111.889,-101.074,80.566,41.992,-152.832,13.672
1689934111.893,-83.984,90.820,42.969,-114.746,50.781
1689934111.897,-58.594,90.820,41.992,-31.738,64.453
1689934111.901,-57.617,78.125,42.480,-32.715,84.473
1689934111.905,-64.941,78.613,40.039,-92.773,71.289
1689934111.909,-56.152,83.008,41.504,-105.957,22.461
1689934111.913,-54.199,79.102,41.992,-79.102,79.102
1689934111.917,-40.527,67.383,34.180,-16.602,49.316
1689934111.921,-13.184,47.363,33.203,20.020,55.664
1689934111.925,-14.160,45.898,35.156,-31.250,84.961
1689934111.929,-22.461,53.711,29.297,-72.754,74.219
1689934111.933,-11.230,52.734,24.414,-48.340,45.410
1689934111.936,7.324,46.387,23.438,21.973,6.836
1689934111.940,21.484,38.086,18.555,51.758,21.973
1689934111.944,16.602,23.438,18.555,20.996,48.340
1689934111.948,12.695,18.066,22.461,-19.531,30.762
1689934111.952,26.855,13.184,24.414,-6.348,21.484
1689934111.956,41.016,2.930,34.180,73.242,4.395
1689934111.960,45.410,0.977,35.156,100.586,59.570
1689934111.964,46.387,-8.301,25.879,53.223,78.125
1689934111.968,56.152,-8.301,22.949,16.113,72.266
1689934111.972,63.477,1.465,21.973,14.160,52.734
1689934111.976,70.801,8.789,14.648,77.637,-6.836
1689934111.980,78.613,16.602,15.625,125.488,15.625
1689934111.983,76.660,13.184,20.508,91.309,63.965
1689934111.987,76.172,10.742,21.973,33.203,69.824
1689934111.991,73.242,22.949,24.902,22.461,23.926
1689934111.995,79.102,27.344,24.902,78.613,49.805
1689934111.999,85.449,15.625,25.391,121.094,88.379
1689934112.003,76.172,12.695,16.602,93.262,37.598
1689934112.007,72.754,13.184,11.230,44.434,21.973
1689934112.011,65.918,5.371,24.902,22.949,2.930
1689934112.015,64.941,8.301,30.273,59.082,-17.090
1689934112.019,75.684,16.113,30.273,105.469,80.078
1689934112.023,69.824,15.625,27.832,97.168,43.945
1689934112.027,69.824,17.578,18.555,46.875,-62.500
1689934112.031,64.941,15.137,25.879,10.742,-32.715
1689934112.034,61.035,13.672,36.621,50.293,6.348
1689934112.038,76.172,18.066,40.527,106.445,44.922
1689934112.042,63.965,2.441,33.691,89.844,63.477
1689934112.046,36.621,-14.160,19.531,20.508,77.637
1689934112.050,47.363,5.371,17.578,-4.883,68.359
1689934112.054,68.359,24.902,19.043,51.758,52.734
1689934112.058,78.613,27.832,23.438,112.305,42.480
1689934112.062,82.520,32.715,36.133,113.770,-4.395
1689934112.066,68.359,34.180,42.480,69.824,21.973
1689934112.070,59.082,28.320,34.180,23.926,60.547
1689934112.074,69.336,28.809,34.180,50.781,36.621
1689934112.078,73.730,33.691,38.086,102.539,0.488
1689934112.081,72.754,27.832,33.203,105.469,-14.160
1689934112.085,70.312,23.438,32.715,68.359,-8.301
1689934112.089,54.199,23.438,26.855,18.066,11.230
1689934112.093,49.805,26.855,25.879,28.320,12.207
1689934112.097,60.547,34.180,28.809,83.984,28.809
1689934112.101,59.082,29.785,28.320,99.609,61.523
1689934112.105,46.875,14.648,29.297,59.570,82.520
1689934112.109,42.480,20.996,28.809,0.000,-41.992
1689934112.113,44.434,20.508,27.344,13.672,-99.121
1689934112.117,48.828,11.230,23.926,69.336,-17.090
1689934112.121,57.129,23.926,20.508,89.355,-4.395
1689934112.125,53.711,29.297,21.484,62.012,25.879
1689934112.128,46.387,26.367,20.508,1.953,27.344
1689934112.132,54.688,32.715,18.555,2.441,58.105
1689934112.136,67.383,36.621,17.090,62.988,96.191
1689934112.140,67.871,36.621,16.602,103.027,82.031
1689934112.144,60.547,33.691,20.020,82.520,44.434
1689934112.148,57.129,31.250,24.414,20.020,13.672
1689934112.152,51.270,30.762,24.414,6.836,41.504
1689934112.156,61.035,29.297,27.344,56.641,96.191
1689934112.160,68.359,29.785,32.715,95.703,62.500
1689934112.164,62.988,18.066,30.273,79.102,41.992
1689934112.168,51.758,15.625,29.785,9.277,14.648
1689934112.172,43.457,36.621,31.738,-12.695,-5.859
1689934112.175,50.781,39.551,33.691,31.250,55.664
1689934112.179,56.641,33.203,35.156,70.312,6.836
1689934112.183,50.293,33.691,33.203,66.895,-20.508
1689934112.187,32.227,36.133,36.133,9.766,23.438
1689934112.191,28.809,30.273,38.086,-15.137,-13.672
1689934112.195,30.273,24.902,36.133,20.996,15.625
1689934112.199,35.645,26.367,31.250,63.477,36.133
1689934112.203,40.039,20.996,31.250,63.477,19.531
1689934112.207,27.832,23.926,27.832,7.812,48.340
1689934112.211,27.344,35.156,23.438,-33.691,11.230
1689934112.215,29.785,31.250,20.996,-4.395,16.113
1689934112.219,35.645,28.320,14.160,58.105,49.316
1689934112.222,39.551,30.762,12.695,68.359,90.332
1689934112.226,32.715,26.855,13.672,17.090,77.148
1689934112.230,31.250,26.855,11.719,-24.902,-17.578
1689934112.234,35.645,25.391,9.277,-1.953,-2.930
1689934112.238,44.434,23.926,9.277,66.895,-15.137
1689934112.242,49.316,20.996,14.160,86.426,-16.602
1689934112.246,38.574,12.695,20.508,30.762,27.344
1689934112.250,23.438,15.625,20.996,-15.625,32.715
1689934112.254,18.555,23.926,20.508,4.883,13.672
1689934112.258,30.273,27.832,19.531,61.035,2.930
1689934112.262,38.086,34.668,20.508,86.426,-16.602
1689934112.266,36.133,37.598,21.973,35.645,-12.207
1689934112.269,38.574,27.832,16.113,-17.578,84.473
1689934112.273,28.809,26.367,14.160,-18.555,84.473
1689934112.277,28.320,35.156,15.625,44.922,73.242
1689934112.281,32.715,38.086,19.531,94.238,53.223
1689934112.285,23.926,37.109,20.996,42.969,31.250
1689934112.289,26.367,26.855,24.414,-23.926,32.227
1689934112.293,18.066,18.066,21.973,-25.879,-28.809
1689934112.297,20.996,24.414,19.531,29.785,-26.367
1689934112.301,31.250,32.715,25.391,80.566,40.527
1689934112.305,24.902,36.133,28.809,58.105,74.219
1689934112.309,23.926,39.062,33.203,-6.348,55.176
1689934112.313,23.438,39.551,32.715,-19.043,8.301
1689934112.316,25.391,35.156,34.668,38.574,-9.766
1689934112.320,28.809,29.785,34.668,90.820,44.922
1689934112.324,26.855,28.320,33.691,67.383,59.570
1689934112.328,27.832,27.344,33.691,7.812,50.781
1689934112.332,24.902,28.320,35.645,-10.254,30.762
1689934112.336,34.668,31.738,35.156,32.227,2.441
1689934112.340,42.969,39.062,27.344,77.637,-23.926
1689934112.344,33.203,41.016,25.879,57.617,-13.672
1689934112.348,27.344,35.156,30.762,-5.371,40.039
1689934112.352,24.414,34.180,34.180,-27.832,51.758
1689934112.356,22.461,30.273,37.109,20.508,19.043
1689934112.360,27.832,31.250,35.645,76.660,11.719
1689934112.363,23.438,31.250,34.668,73.730,57.129
1689934112.367,13.184,23.926,34.180,18.066,82.520
1689934112.371,11.719,23.438,35.156,-23.438,91.309
1689934112.375,24.414,29.297,37.109,12.695,70.312
1689934112.379,34.668,32.227,38.574,77.637,35.156
1689934112.383,40.039,34.668,41.992,84.961,82.031
1689934112.387,32.715,28.809,42.969,22.461,58.105
1689934112.391,21.484,25.879,39.062,-17.090,-17.578
1689934112.395,22.949,33.691,34.180,10.254,12.695
1689934112.399,29.785,33.203,31.738,65.918,53.223
1689934112.403,28.809,27.832,26.855,78.613,12.207
1689934112.407,19.531,29.297,25.879,24.414,1.953
1689934112.411,12.207,36.133,26.367,-27.344,1.465
1689934112.415,15.625,36.133,28.320,-9.277,14.648
1689934112.418,24.902,30.762,31.738,59.082,25.879
1689934112.422,22.949,29.785,33.203,75.684,33.203
1689934112.426,17.578,29.785,34.180,29.785,20.996
1689934112.430,18.555,33.691,40.527,-15.625,20.996
1689934112.434,17.578,34.668,41.504,-14.648,61.523
1689934112.438,18.555,33.203,35.156,38.574,50.781
1689934112.442,27.832,36.133,33.203,63.965,31.738
1689934112.446,28.809,35.156,31.250,30.273,46.875
1689934112.450,27.832,34.180,31.738,-16.602,52.246
1689934112.454,29.297,32.715,33.691,-16.602,26.855
1689934112.458,35.156,32.715,32.227,46.875,53.711
1689934112.462,41.504,34.668,30.273,89.355,109.375
1689934112.465,41.992,38.086,30.273,56.641,66.895
1689934112.469,42.480,31.250,31.250,3.906,11.230
1689934112.473,38.086,29.297,34.668,-11.230,53.223
1689934112.477,41.992,41.016,32.227,32.715,61.035
1689934112.481,49.316,43.457,30.273,78.613,43.457
1689934112.485,45.410,45.898,31.738,58.594,38.574
1689934112.489,37.598,45.410,35.645,-2.441,-2.441
1689934112.493,21.973,36.621,31.250,-22.461,47.852
1689934112.497,24.902,35.156,29.785,22.461,78.613
1689934112.501,39.062,37.109,37.598,74.219,46.875
1689934112.505,26.367,33.203,30.273,54.199,25.879
1689934112.509,20.996,33.203,26.855,-12.207,15.137
1689934112.512,23.926,31.738,34.668,-31.738,55.664
1689934112.516,30.273,24.414,35.645,16.113,-25.391
1689934112.520,41.504,25.391,34.180,67.871,-81.055
1689934112.524,39.551,32.715,36.621,62.012,-32.227
1689934112.528,28.809,31.250,40.039,12.207,26.367
1689934112.532,25.391,32.715,38.086,-25.391,24.902
1689934112.536,31.738,28.809,32.715,17.090,21.484
1689934112.540,35.156,20.020,36.621,75.195,89.844
1689934112.544,36.621,21.973,41.992,67.871,61.523
1689934112.548,24.414,24.414,44.434,15.137,-19.531
1689934112.552,16.602,26.367,41.992,-19.531,-32.715
1689934112.556,19.043,27.832,41.504,15.625,-49.316
1689934112.559,22.949,27.344,33.203,75.684,-20.996
1689934112.563,24.414,22.461,28.809,85.938,70.312
1689934112.567,20.508,16.602,30.273,29.785,61.035
1689934112.571,18.066,28.809,30.273,-11.719,87.891
1689934112.575,20.020,41.992,33.203,10.254,78.613
1689934112.579,29.297,34.180,24.414,61.523,3.906
1689934112.583,38.086,28.320,18.066,77.637,20.508
1689934112.587,35.645,32.715,20.508,35.156,6.348
1689934112.591,32.227,35.645,23.438,-16.602,-21.973
1689934112.595,37.109,32.227,24.902,-6.348,8.301
1689934112.599,43.457,31.738,28.320,60.547,-0.488
1689934112.603,52.246,41.992,24.902,93.262,-1.953
1689934112.606,52.246,40.039,22.461,48.340,65.918
1689934112.610,37.598,31.738,29.297,-13.184,37.598
1689934112.614,41.016,31.738,26.367,-6.348,19.043
1689934112.618,47.363,30.273,17.090,62.988,66.406
1689934112.622,42.480,32.227,17.090,97.168,32.715
1689934112.626,40.039,32.715,18.066,66.406,24.414
1689934112.630,26.367,31.250,20.020,5.859,66.406
1689934112.634,15.625,26.367,29.297,-11.230,51.270
1689934112.638,19.531,23.438,34.180,37.598,12.207
1689934112.642,14.160,22.461,34.180,69.824,40.039
1689934112.646,5.371,27.344,29.785,38.086,-5.371
1689934112.650,7.324,30.273,29.297,-17.090,23.438
1689934112.653,15.137,22.949,31.738,-20.996,61.523
1689934112.657,27.832,23.926,28.809,43.945,52.734
1689934112.661,29.785,26.855,26.367,82.520,50.293
1689934112.665,26.855,28.320,25.391,53.223,1.465
1689934112.669,23.438,33.203,27.832,-14.160,-35.156
1689934112.673,13.672,33.691,29.785,-30.762,-16.602
1689934112.677,24.902,31.250,29.297,29.297,34.180
1689934112.681,37.109,34.180,22.461,79.590,19.531
1689934112.685,29.785,32.227,19.043,66.895,49.316
1689934112.689,22.949,21.484,21.973,2.930,18.555
1689934112.693,17.090,19.043,28.809,-30.273,17.578
1689934112.697,21.484,22.949,24.902,19.043,78.125
1689934112.700,28.320,20.020,20.508,81.055,30.273
1689934112.704,30.762,20.508,29.297,83.008,25.879
1689934112.708,24.414,22.949,39.551,25.879,39.062
1689934112.712,23.438,22.949,38.574,-12.695,19.531
1689934112.716,33.203,25.879,40.039,16.113,-7.324
1689934112.720,39.062,31.738,42.480,83.984,-21.973
1689934112.724,39.551,28.809,40.527,98.633,23.438
1689934112.728,28.320,29.785,39.062,30.273,77.637
1689934112.732,32.227,31.738,38.574,-19.531,41.504
1689934112.736,39.062,27.344,41.016,6.348,-23.438
1689934112.740,48.828,32.715,40.039,74.219,1.465
1689934112.744,53.711,33.203,41.016,91.797,8.301
1689934112.747,39.062,29.785,40.527,38.086,39.062
1689934112.751,34.668,30.762,35.156,-7.324,26.367
1689934112.755,45.898,23.926,31.250,5.859,4.883
1689934112.759,50.781,28.809,34.180,63.477,4.883
1689934112.763,41.016,36.133,34.180,96.680,35.156
1689934112.767,40.039,34.180,34.180,45.410,15.137
1689934112.771,34.180,31.738,30.273,-13.184,17.090
1689934112.775,22.949,19.043,30.762,-4.395,72.754
1689934112.779,21.484,18.066,29.297,47.363,27.832
1689934112.783,30.762,29.297,27.832,83.496,-12.695
1689934112.787,28.320,30.762,27.832,51.270,27.344
1689934112.791,9.766,29.297,25.879,-2.930,68.848
1689934112.795,14.160,27.832,25.391,4.883,22.461
1689934112.798,27.832,24.414,22.949,66.406,13.184
1689934112.802,24.414,27.832,22.949,93.750,44.434
1689934112.806,23.926,36.133,27.344,57.617,62.988
1689934112.810,19.043,34.180,24.414,-3.906,55.176
1689934112.814,14.160,30.762,23.438,-25.391,-39.551
1689934112.818,25.879,18.066,23.926,27.344,-42.969
1689934112.822,41.992,3.906,22.461,79.102,35.645
1689934112.826,44.434,23.926,23.438,54.688,-10.742
1689934112.830,36.133,37.109,14.160,-7.812,-36.133
1689934112.834,28.809,33.691,13.184,-35.156,-6.348
1689934112.838,32.227,27.344,15.625,15.625,-7.812
1689934112.842,39.551,20.020,14.648,74.707,-20.508
1689934112.845,33.691,21.484,23.438,61.523,-12.695
1689934112.849,21.484,27.344,26.855,10.742,21.484
1689934112.853,21.484,20.996,23.926,-16.602,-14.648
1689934112.857,25.391,18.555,26.367,23.438,-16.602
1689934112.861,27.344,24.414,28.809,77.148,20.508
1689934112.865,31.250,28.809,24.414,65.430,9.766
1689934112.869,25.879,29.785,24.902,3.418,52.246
1689934112.873,20.996,30.762,28.809,-29.297,62.500
1689934112.877,20.020,33.203,26.367,1.465,38.574
1689934112.881,23.926,30.762,25.879,59.570,60.547
1689934112.885,23.926,26.367,31.250,68.359,48.828
1689934112.889,22.949,23.438,27.344,22.461,53.223
1689934112.892,24.414,29.297,21.973,-14.648,8.301
1689934112.896,30.762,38.574,21.973,11.230,86.914
1689934112.900,35.645,33.203,27.344,63.477,121.094
1689934112.904,30.273,26.855,26.855,64.941,64.941
1689934112.908,20.996,26.855,28.320,21.973,58.594
1689934112.912,16.113,26.855,30.762,-28.809,38.574
1689934112.916,23.926,37.598,34.668,-15.137,52.246
1689934112.920,27.344,31.250,32.715,41.504,53.223
1689934112.924,23.926,19.531,22.461,47.852,61.523
1689934112.928,23.926,25.879,23.926,17.578,91.797
1689934112.932,25.391,29.785,21.973,-26.855,41.992
1689934112.936,21.973,28.320,22.461,-32.227,0.488
1689934112.939,19.043,24.902,28.809,23.438,65.430
1689934112.943,21.973,25.879,22.949,55.664,28.320
1689934112.947,16.602,23.438,23.926,34.180,36.621
1689934112.951,10.742,21.973,31.738,-19.531,54.199
1689934112.955,11.719,25.879,33.203,-24.902,12.695
1689934112.959,20.996,20.996,31.250,33.203,57.129
1689934112.963,30.762,17.090,28.320,64.941,103.027
1689934112.967,22.949,25.391,22.949,30.273,64.453
1689934112.971,13.672,29.297,20.996,-17.578,41.992
1689934112.975,21.484,19.043,19.531,-29.785,35.645
1689934112.979,29.785,19.531,19.531,26.367,11.719
1689934112.983,35.156,36.133,15.625,71.289,12.207
1689934112.986,21.484,38.086,7.324,34.668,-6.348
1689934112.990,11.230,29.785,9.277,-23.438,4.395
1689934112.994,16.113,33.203,15.625,-38.574,34.668
1689934112.998,28.320,34.180,21.973,15.625,14.648
1689934113.002,39.551,26.367,21.973,63.965,-15.625
1689934113.006,38.086,26.855,22.461,52.734,0.488
1689934113.010,35.156,31.250,22.949,4.395,-2.441
1689934113.014,31.250,26.367,19.531,-29.297,6.348
1689934113.018,27.344,26.367,21.484,7.812,-8.789
1689934113.022,35.645,26.855,22.949,62.988,37.598
1689934113.026,38.086,18.066,20.996,52.734,92.773
1689934113.030,27.832,20.508,26.367,4.395,10.742
1689934113.033,24.414,26.367,25.391,-22.461,-32.227
1689934113.037,29.785,22.461,19.043,15.625,14.160
1689934113.041,35.156,20.020,20.508,69.824,57.129
1689934113.045,42.969,28.809,20.508,69.824,8.789
1689934113.049,35.156,34.668,21.484,21.484,0.488
1689934113.053,20.508,27.832,28.809,-21.973,54.199
1689934113.057,26.855,31.250,29.785,2.441,41.992
1689934113.061,29.297,31.738,23.926,53.711,31.738
1689934113.065,27.344,21.973,21.484,65.430,75.195
1689934113.069,30.273,20.508,22.949,23.926,110.840
1689934113.073,23.926,21.484,23.926,-24.414,14.648
1689934113.077,26.367,26.367,30.762,-6.348,-27.344
1689934113.080,28.809,27.344,36.133,44.434,41.992
1689934113.084,23.926,22.949,31.250,67.383,51.270
1689934113.088,23.926,27.832,25.391,29.785,21.484
1689934113.092,22.461,33.203,20.020,-29.785,34.180
1689934113.096,21.484,28.809,19.043,-20.020,43.945
1689934113.100,25.879,20.508,18.066,33.203,41.504
1689934113.104,28.320,19.043,17.578,62.500,86.426
1689934113.108,20.996,24.902,24.414,33.691,81.055
1689934113.112,18.555,27.344,27.832,-23.438,38.086
1689934113.116,23.926,23.438,25.391,-27.344,33.203
1689934113.120,22.949,19.531,23.438,21.484,34.180
1689934113.124,18.555,20.020,24.902,69.824,58.105
1689934113.127,19.043,23.926,22.461,43.457,10.254
1689934113.131,17.090,17.090,16.602,-27.344,-50.293
1689934113.135,20.020,15.137,20.996,-20.508,-19.531
1689934113.139,24.414,24.902,20.996,38.086,62.012
1689934113.143,29.297,21.973,16.113,77.148,43.457
1689934113.147,30.273,12.695,21.973,59.082,-40.527
1689934113.151,18.066,6.836,23.438,-7.812,-21.484
1689934113.155,16.113,16.602,21.973,-22.949,1.465
1689934113.159,27.832,34.180,21.973,26.367,30.762
1689934113.163,34.180,39.062,20.508,70.312,7.324
1689934113.167,23.926,29.785,22.949,66.406,-33.203
1689934113.171,17.090,23.926,22.461,6.836,6.836
1689934113.174,21.973,29.785,16.602,-22.461,-2.441
1689934113.178,31.738,33.203,18.555,20.996,7.324
1689934113.182,45.898,33.203,19.531,75.195,51.758
1689934113.186,50.781,27.344,19.043,72.266,68.848
1689934113.190,41.016,24.414,20.508,5.859,46.875
1689934113.194,26.367,31.738,19.043,-31.250,19.531
1689934113.198,26.367,26.367,20.020,9.766,2.930
1689934113.202,33.203,23.926,21.484,68.359,52.246
1689934113.206,34.668,31.250,18.555,75.684,91.797
1689934113.210,26.855,32.227,17.090,20.508,87.891
1689934113.214,25.879,31.738,22.461,-20.996,28.320
1689934113.218,27.344,28.320,25.879,3.418,20.508
1689934113.222,39.062,30.273,20.508,64.453,65.918
1689934113.225,46.875,27.832,20.508,85.449,44.434
1689934113.229,31.738,28.320,30.273,31.250,87.891
1689934113.233,27.832,34.180,27.832,-17.578,120.605
1689934113.237,22.949,20.996,19.043,-12.695,28.809
1689934113.241,20.996,14.648,20.020,41.992,-28.320
1689934113.245,24.902,17.578,18.555,69.336,30.273
1689934113.249,15.137,24.414,22.461,25.879,67.383
1689934113.253,12.695,29.785,28.320,-25.391,16.602
1689934113.257,26.367,26.855,24.902,-25.391,-26.855
1689934113.261,35.645,28.809,24.902,43.457,14.648
1689934113.265,41.504,34.668,24.902,87.891,43.457
1689934113.269,30.762,34.180,19.531,35.156,24.414
1689934113.272,17.090,28.320,15.137,-33.691,9.277
1689934113.276,21.973,31.250,17.090,-22.949,45.898
1689934113.280,33.691,32.715,19.043,39.062,73.242
1689934113.284,36.133,25.879,21.973,73.730,10.742
1689934113.288,22.949,31.250,25.879,48.828,17.578
1689934113.292,18.555,36.133,29.785,-16.113,52.246
1689934113.296,17.090,26.855,33.691,-40.527,46.875
1689934113.300,21.973,26.855,34.180,13.672,8.301
1689934113.304,37.598,36.621,33.203,66.895,19.531
1689934113.308,39.551,38.574,35.645,47.363,24.414
1689934113.312,35.645,39.062,39.551,-5.859,-2.930
1689934113.316,41.992,40.039,39.551,-26.855,12.695
1689934113.319,44.922,36.133,38.086,25.391,-7.324
1689934113.323,54.688,35.645,39.062,88.379,73.242
1689934113.327,61.523,39.551,44.434,73.730,61.035
1689934113.331,43.945,36.133,39.062,12.695,34.180
1689934113.335,30.273,30.273,31.250,-31.250,75.684
1689934113.339,27.832,20.996,38.086,2.930,20.508
1689934113.343,36.133,19.531,44.434,64.941,0.977
1689934113.347,33.203,23.926,44.434,56.152,1.465
1689934113.351,18.555,29.297,47.363,2.441,-1.953
1689934113.355,12.695,37.109,41.504,-35.645,51.758
1689934113.359,21.484,40.527,35.645,-4.883,71.777
1689934113.363,34.180,39.062,34.668,62.012,80.566
1689934113.366,27.832,34.180,34.180,69.824,101.074
1689934113.370,17.578,32.227,29.785,9.766,-22.461
1689934113.374,14.160,27.832,18.555,-31.250,-76.660
1689934113.378,15.625,22.949,15.625,-3.418,29.785
1689934113.382,24.414,17.578,16.602,59.570,91.797
1689934113.386,25.879,15.625,16.113,77.148,64.941
1689934113.390,17.578,24.902,15.137,22.949,-16.602
1689934113.394,16.602,42.969,18.066,-25.391,-41.992
1689934113.398,24.414,50.781,22.461,1.465,-9.277
1689934113.402,23.926,37.598,18.555,66.406,20.508
1689934113.406,28.809,32.227,15.625,79.590,38.086
1689934113.410,32.715,32.715,16.602,41.504,3.906
1689934113.413,30.762,25.879,21.484,-18.555,12.207
1689934113.417,33.691,23.926,29.297,-11.230,13.672
1689934113.421,46.387,28.320,26.855,62.988,-15.625
1689934113.425,59.570,32.715,30.762,87.402,-32.227
1689934113.429,51.758,36.133,41.016,48.340,-9.766
1689934113.433,36.133,32.227,37.598,-11.230,96.680
1689934113.437,21.973,25.879,34.180,-18.555,62.988
1689934113.441,26.367,19.043,32.715,36.133,-29.785
1689934113.445,35.156,18.066,34.180,79.590,-21.484
1689934113.449,22.949,21.973,36.621,50.293,55.664
1689934113.453,10.742,24.902,37.598,-21.973,42.480
1689934113.457,13.672,28.809,39.062,-33.203,44.434
1689934113.460,29.785,29.785,36.621,34.180,-1.953
1689934113.464,42.480,26.855,32.715,83.008,42.480
1689934113.468,30.273,24.902,28.320,60.059,75.684
1689934113.472,21.484,24.414,28.320,-2.930,-13.184
1689934113.476,23.926,26.855,41.992,-17.578,38.086
1689934113.480,17.578,28.320,41.992,33.203,90.820
1689934113.484,20.020,28.320,33.203,81.055,81.055
1689934113.488,28.320,29.297,36.621,70.801,40.527
1689934113.492,30.273,27.832,38.574,10.254,17.578
1689934113.496,33.691,26.855,36.621,-18.066,20.996
1689934113.500,36.621,28.809,32.715,36.133,25.879
1689934113.504,39.551,31.250,33.203,87.402,17.090
1689934113.507,38.574,32.715,30.273,67.383,4.395
1689934113.511,25.879,32.715,20.020,15.625,19.043
1689934113.515,18.555,27.344,19.531,-26.367,45.410
1689934113.519,28.809,24.902,24.902,4.395,51.270
1689934113.523,25.879,31.250,23.926,57.129,-4.883
1689934113.527,18.066,35.645,24.902,51.270,-14.648
1689934113.531,14.160,34.180,29.785,2.441,13.184
1689934113.535,6.348,33.691,25.879,-44.434,5.859
1689934113.539,18.555,29.297,23.438,-13.184,-4.395
1689934113.543,30.273,27.344,27.344,58.594,15.625
1689934113.547,27.344,31.250,30.273,78.125,-3.906
1689934113.551,27.832,35.645,31.250,23.926,-6.836
1689934113.554,22.461,38.086,29.785,-33.203,20.508
1689934113.558,25.391,41.016,31.250,-8.301,15.137
1689934113.562,39.551,38.574,36.621,63.477,64.453
1689934113.566,42.480,31.738,34.180,79.590,73.730
1689934113.570,38.574,33.203,24.902,26.855,60.547
1689934113.574,31.738,33.691,28.320,-27.344,18.066
1689934113.578,25.391,32.227,34.180,-9.766,-9.277
1689934113.582,36.133,33.691,36.621,51.270,58.594
1689934113.586,42.480,29.785,40.527,78.125,36.133
1689934113.590,21.484,20.020,34.668,31.738,-21.973
1689934113.594,8.301,17.090,23.926,-39.062,27.344
1689934113.598,15.137,22.461,27.344,-26.855,42.480
1689934113.601,24.414,27.832,29.297,36.133,-12.695
1689934113.605,28.320,29.297,22.461,64.941,25.879
1689934113.609,20.996,27.344,20.020,27.832,69.824
1689934113.613,13.672,28.320,20.020,-32.227,73.242
1689934113.617,14.648,28.320,20.020,-37.109,101.074
1689934113.621,27.344,20.020,20.508,23.438,89.355
1689934113.625,35.645,20.020,25.879,70.801,26.855
1689934113.629,31.738,22.949,27.344,46.875,39.551
1689934113.633,27.832,9.277,22.949,-13.672,73.730
1689934113.637,25.391,4.395,22.949,-27.832,22.949
1689934113.641,27.344,18.066,29.785,25.391,7.812
1689934113.645,38.086,29.785,31.738,80.078,66.895
1689934113.649,34.668,29.297,33.203,63.477,60.547
1689934113.652,27.832,25.879,37.598,-2.441,6.836
1689934113.656,29.785,22.461,38.574,-22.461,37.598
1689934113.660,31.250,21.484,36.621,24.902,41.016
1689934113.664,36.133,21.484,34.180,78.125,29.297
1689934113.668,32.715,22.461,35.156,78.613,59.082
1689934113.672,29.297,22.461,31.738,14.648,31.250
1689934113.676,34.668,21.973,29.297,-9.766,-14.160
1689934113.680,38.086,25.391,29.297,39.062,9.277
1689934113.684,45.410,27.832,26.367,75.684,10.742
1689934113.688,52.246,33.691,29.785,66.895,66.406
1689934113.692,49.805,35.645,32.715,20.020,55.176
1689934113.696,42.480,29.297,31.738,-12.207,8.301
1689934113.699,43.457,30.762,33.691,21.973,29.785
1689934113.703,48.340,35.156,29.297,70.312,48.340
1689934113.707,38.086,34.180,25.391,71.777,44.922
1689934113.711,24.414,35.156,23.926,19.531,24.414
1689934113.715,20.996,30.762,29.297,-23.926,6.348
1689934113.719,24.414,28.809,33.203,6.836,16.113
1689934113.723,28.320,21.484,29.297,62.012,58.594
1689934113.727,31.738,18.066,26.855,78.613,70.312
1689934113.731,29.785,27.832,26.855,37.598,41.992
1689934113.735,15.137,23.438,27.344,-13.672,31.738
1689934113.739,9.277,20.020,20.996,-6.348,90.332
1689934113.743,13.184,23.438,23.926,50.293,107.422
1689934113.746,16.602,21.973,26.367,69.824,-41.504
1689934113.750,16.113,23.438,23.438,28.809,-59.570
1689934113.754,14.648,28.809,27.344,-25.391,39.551
1689934113.758,16.113,28.809,28.320,-23.438,49.316
1689934113.762,30.762,23.926,24.414,34.180,121.094
1689934113.766,39.551,17.578,26.367,74.219,54.199
1689934113.770,27.344,26.855,29.785,41.016,-10.742
1689934113.774,17.090,38.574,26.855,-15.625,42.969
1689934113.778,14.160,37.598,28.320,-13.672,72.266
1689934113.782,23.926,35.156,28.809,36.621,57.129
1689934113.786,39.062,18.066,22.949,75.195,-0.488
1689934113.790,25.879,14.160,22.949,41.992,95.703
1689934113.793,10.742,24.902,26.855,-14.160,122.559
1689934113.797,13.672,22.461,29.785,-29.297,-5.371
1689934113.801,16.113,20.508,30.762,17.578,-21.484
1689934113.805,21.484,23.438,26.367,62.012,14.160
1689934113.809,19.531,22.949,31.250,41.504,-0.977
1689934113.813,4.883,20.996,36.133,-8.789,-47.363
1689934113.817,-4.883,23.926,30.762,-34.180,4.395
1689934113.821,18.555,23.926,27.832,14.648,69.336
1689934113.825,34.180,20.020,25.391,83.008,157.227
1689934113.829,19.531,22.949,26.855,68.848,112.305
1689934113.833,18.066,24.902,35.645,-3.418,4.395
1689934113.837,23.926,31.250,33.203,-33.691,31.250
1689934113.840,24.414,28.809,31.738,3.418,28.809
1689934113.844,29.785,24.414,36.133,61.523,-18.066
1689934113.848,22.461,31.250,32.715,59.570,53.711
1689934113.852,5.859,31.250,31.250,-4.883,78.613
1689934113.856,3.418,24.414,35.645,-46.875,44.922
1689934113.860,0.000,21.484,32.227,-23.438,40.527
1689934113.864,7.324,24.902,30.273,44.922,68.848
1689934113.868,14.648,28.320,29.297,51.270,61.035
1689934113.872,3.418,24.902,27.832,-8.789,-28.809
1689934113.876,1.953,24.414,22.949,-51.270,-19.043
1689934113.880,14.648,18.066,27.344,-13.672,43.457
1689934113.884,25.879,13.184,37.598,56.641,25.879
1689934113.887,20.020,28.320,38.574,63.965,59.082
1689934113.891,13.184,36.621,37.598,8.789,21.973
1689934113.895,12.695,31.738,36.621,-49.805,-48.340
1689934113.899,15.625,26.855,36.621,-19.531,38.086
1689934113.903,21.484,22.949,34.668,49.805,78.125
1689934113.907,27.344,25.391,30.762,62.988,40.039
1689934113.911,20.508,32.715,31.738,24.414,-27.344
1689934113.915,13.672,37.598,36.133,-20.020,5.371
1689934113.919,6.348,32.715,36.621,-17.090,36.133
1689934113.923,13.184,33.203,36.621,38.086,-12.207
1689934113.927,19.043,33.691,37.109,71.289,26.855
1689934113.931,11.719,27.344,32.227,30.762,122.070
1689934113.934,-2.441,33.691,36.621,-36.621,82.031
1689934113.938,-19.043,38.574,35.156,-53.223,25.879
1689934113.942,-16.113,41.016,31.738,-4.395,47.852
1689934113.946,-13.672,45.898,37.598,29.297,66.406
1689934113.950,-25.391,49.316,40.039,-2.441,41.504
1689934113.954,-41.992,42.480,29.297,-76.660,0.977
1689934113.958,-45.898,35.645,36.133,-97.168,-28.320
1689934113.962,-39.551,36.621,41.016,-41.992,8.789
1689934113.966,-38.574,42.969,22.949,2.930,49.805
1689934113.970,-40.527,48.340,27.832,-22.461,60.059
1689934113.974,-47.852,50.293,38.574,-88.379,18.066
1689934113.978,-55.664,61.523,40.527,-116.699,-19.531
1689934113.981,-64.941,65.430,47.852,-83.008,22.461
1689934113.985,-65.430,65.430,47.852,-38.574,29.297
1689934113.989,-66.406,70.801,41.504,-46.875,9.766
1689934113.993,-87.402,77.148,42.969,-112.793,59.570
1689934113.997,-87.891,73.730,43.457,-143.066,56.152
1689934114.001,-70.801,63.965,48.828,-90.820,20.996
1689934114.005,-64.453,70.801,41.504,-33.691,27.832
1689934114.009,-56.152,74.219,29.785,-32.715,-4.395
1689934114.013,-53.711,72.754,31.738,-77.637,15.625
1689934114.017,-59.570,68.848,29.297,-105.469,92.773
1689934114.021,-48.828,55.176,20.996,-63.965,89.355
1689934114.025,-27.832,46.387,17.578,0.977,79.590
1689934114.029,-20.508,54.199,15.625,15.137,21.973
1689934114.032,-15.625,43.457,17.578,-19.531,-3.906
1689934114.036,-24.414,28.809,16.602,-70.801,-2.441
1689934114.040,-11.719,36.133,8.789,-43.945,3.418
1689934114.044,26.855,31.738,14.160,49.316,21.973
1689934114.048,29.297,25.879,14.648,63.965,48.828
1689934114.052,26.367,29.297,10.254,14.648,43.945
1689934114.056,22.949,22.949,17.578,-20.020,14.160
1689934114.060,32.715,19.043,15.137,-0.488,29.785
1689934114.064,57.617,18.555,10.254,68.359,5.859
1689934114.068,61.035,19.043,13.184,104.980,11.230
1689934114.072,51.758,15.137,7.324,61.035,-23.926
1689934114.076,48.340,13.184,4.883,5.371,-1.953
1689934114.079,53.711,19.043,6.348,17.578,44.922
1689934114.083,71.289,23.926,7.324,81.055,54.199
1689934114.087,76.172,20.020,9.766,118.164,87.891
1689934114.091,70.801,23.926,18.555,92.773,84.961
1689934114.095,67.871,24.902,22.461,34.180,20.508
1689934114.099,64.453,9.277,15.625,18.066,29.297
1689934114.103,72.266,11.230,19.531,75.684,93.750
1689934114.107,80.566,20.996,17.090,122.070,75.684
1689934114.111,79.102,24.414,17.578,88.867,39.062
1689934114.115,75.195,20.508,24.902,24.902,15.137
1689934114.119,63.965,16.113,25.879,20.020,11.230
1689934114.123,63.965,20.020,26.367,62.012,5.371
1689934114.126,70.312,22.461,27.344,108.398,37.109
1689934114.130,62.988,21.484,22.949,100.586,89.844
1689934114.134,48.340,20.996,23.438,31.250,19.531
1689934114.138,45.898,13.184,24.414,3.906,-11.230
1689934114.142,60.059,17.578,15.625,47.363,0.000
1689934114.146,62.500,27.344,9.277,102.539,-35.645
1689934114.150,57.617,23.926,19.043,98.633,12.695
1689934114.154,52.734,14.160,33.203,44.434,42.480
1689934114.158,54.199,5.859,30.762,21.973,6.348
1689934114.162,66.895,14.160,30.762,66.895,44.922
1689934114.166,77.637,30.762,34.668,126.465,58.594
1689934114.170,83.008,36.621,32.227,126.953,68.359
1689934114.173,71.777,30.273,27.832,62.988,38.086
1689934114.177,60.059,30.273,23.926,21.484,25.391
1689934114.181,64.941,35.156,27.832,53.223,21.484
1689934114.185,67.383,30.273,33.203,114.258,11.230
1689934114.189,67.871,27.344,33.691,121.582,24.414
1689934114.193,59.082,20.020,34.668,59.082,27.832
1689934114.197,45.410,16.113,37.598,6.836,6.348
1689934114.201,45.410,22.461,42.969,24.902,18.555
1689934114.205,52.246,29.785,40.039,97.168,78.613
1689934114.209,55.664,32.715,37.109,111.816,67.383
1689934114.213,57.617,37.598,43.945,54.688,38.574
1689934114.217,52.246,33.691,41.504,4.883,12.207
1689934114.220,42.480,30.762,39.551,10.742,-3.906
1689934114.224,51.270,30.762,40.527,74.707,22.949
1689934114.228,59.082,24.902,39.551,96.680,2.930
1689934114.232,54.199,25.879,40.039,53.223,18.066
1689934114.236,49.316,22.949,41.016,12.207,18.066
1689934114.240,56.152,18.555,39.551,10.742,-28.809
1689934114.244,67.871,21.973,36.133,66.895,-48.828
1689934114.248,61.523,18.066,33.691,104.492,-21.973
1689934114.252,55.176,21.484,34.668,65.430,38.086
1689934114.256,52.246,29.297,33.691,15.625,72.266
1689934114.260,56.641,26.855,30.762,8.789,2.930
1689934114.264,63.477,30.273,29.785,59.570,-4.883
1689934114.267,64.453,34.668,25.879,111.816,-16.113
1689934114.271,62.012,31.250,21.484,71.289,-7.324
1689934114.275,53.711,28.809,25.391,3.906,3.418
1689934114.279,45.410,32.715,25.391,-7.324,15.625
1689934114.283,47.363,32.715,23.926,45.898,14.648
1689934114.287,52.246,26.855,27.344,96.191,-10.742
1689934114.291,53.223,25.391,29.785,75.195,-23.926
1689934114.295,43.457,30.273,32.227,22.949,6.348
1689934114.299,39.551,33.691,34.668,-8.789,27.832
1689934114.303,48.340,30.273,34.668,32.227,-10.254
1689934114.307,62.500,29.785,36.621,103.516,63.477
1689934114.311,73.242,32.227,34.180,104.004,103.516
1689934114.314,63.477,25.879,30.762,42.969,41.504
1689934114.318,54.688,33.203,34.180,-1.465,52.734
1689934114.322,49.805,30.762,36.621,17.578,1.465
1689934114.326,49.805,26.855,36.133,81.543,5.371
1689934114.330,56.641,29.785,37.109,90.332,7.324
1689934114.334,46.875,29.785,42.969,29.785,38.574
1689934114.338,38.086,33.203,39.062,-20.996,95.215
1689934114.342,47.852,30.273,27.832,13.184,40.039
1689934114.346,52.734,27.344,25.391,80.078,84.961
1689934114.350,57.129,31.738,30.273,84.473,119.629
1689934114.354,54.688,35.645,33.203,34.668,24.414
1689934114.358,41.504,33.691,35.645,-10.742,-18.066
1689934114.361,42.969,33.691,35.156,19.043,32.227
1689934114.365,54.199,23.926,37.109,88.867,62.012
1689934114.369,56.641,18.555,39.062,100.586,38.086
1689934114.373,50.293,30.762,36.621,54.688,34.668
1689934114.377,43.945,31.250,37.598,-0.977,69.824
1689934114.381,39.062,28.320,40.039,9.766,56.152
1689934114.385,41.504,36.133,38.086,76.660,61.523
1689934114.389,44.922,35.156,35.645,84.961,2.930
1689934114.393,33.691,31.738,34.180,38.086,13.672
1689934114.397,26.855,38.086,39.062,-9.766,8.301
1689934114.401,29.785,38.086,41.016,-2.930,-48.828
1689934114.405,42.480,35.156,34.180,62.500,-7.812
1689934114.408,47.363,37.598,31.250,83.984,8.301
1689934114.412,36.621,36.621,27.832,45.898,44.922
1689934114.416,28.809,27.832,26.367,-7.324,58.594
1689934114.420,25.879,21.973,29.297,-13.672,4.395
1689934114.424,37.109,34.180,26.855,48.340,19.531
1689934114.428,44.922,38.086,20.508,87.402,53.223
1689934114.432,40.039,30.762,23.438,56.641,93.262
1689934114.436,36.621,31.738,31.250,4.883,87.891
1689934114.440,40.039,32.715,31.738,-2.930,-4.395
1689934114.444,45.410,32.227,30.273,52.734,-32.227
1689934114.448,41.504,31.738,31.250,100.586,18.555
1689934114.452,37.598,29.297,31.738,70.801,19.043
1689934114.455,31.250,25.879,28.320,9.277,56.641
1689934114.459,24.414,25.391,35.156,-5.371,57.617
1689934114.463,28.320,26.367,34.668,44.922,11.230
1689934114.467,35.645,21.484,27.832,84.473,35.156
1689934114.471,34.668,21.484,29.785,67.871,1.465
1689934114.475,30.762,20.996,27.832,4.395,15.137
1689934114.479,36.621,16.113,30.762,-27.344,20.996
1689934114.483,35.156,10.742,30.762,22.461,-21.484
1689934114.487,39.062,9.766,27.344,81.055,76.660
1689934114.491,38.086,23.438,28.320,72.754,107.910
1689934114.495,26.855,36.133,33.691,4.883,51.270
1689934114.499,25.879,37.598,35.156,-27.832,48.340
1689934114.503,29.297,38.086,28.809,16.113,20.020
1689934114.506,39.551,36.621,26.367,65.918,-21.973
1689934114.510,42.480,33.691,30.762,79.102,11.719
1689934114.514,30.273,37.598,28.809,23.438,69.336
1689934114.518,17.090,34.668,28.809,-29.297,34.668
1689934114.522,19.531,25.391,37.109,13.184,20.508
1689934114.526,33.203,26.855,39.551,77.148,-5.371
1689934114.530,40.039,30.273,40.039,88.867,-26.855
1689934114.534,28.809,22.461,40.527,34.668,21.973
1689934114.538,23.438,20.508,40.039,-8.789,-5.371
1689934114.542,29.297,19.531,33.691,18.555,-20.996
1689934114.546,33.203,15.625,31.738,64.941,12.695
1689934114.550,33.691,25.391,32.227,75.684,40.527
1689934114.553,30.762,34.180,27.344,20.020,36.133
1689934114.557,23.438,32.227,26.855,-41.016,55.176
1689934114.561,25.391,30.762,32.227,-21.973,68.848
1689934114.565,28.320,25.879,27.832,37.598,-10.742
1689934114.569,29.297,22.949,20.508,70.312,-0.977
1689934114.573,30.762,22.461,22.949,29.785,21.484
1689934114.577,28.320,17.578,30.273,-23.926,21.484
1689934114.581,28.320,23.438,32.715,-13.672,73.730
1689934114.585,40.039,23.438,31.738,41.016,41.016
1689934114.589,44.434,22.461,32.227,85.449,51.758
1689934114.593,30.273,33.691,31.250,47.363,46.387
1689934114.597,25.391,38.086,32.715,-16.602,18.066
1689934114.600,29.297,36.621,33.203,-11.230,49.316
1689934114.604,30.273,29.297,34.180,43.457,18.066
1689934114.608,30.273,21.973,38.086,80.566,41.992
1689934114.612,28.809,25.391,34.180,48.828,92.773
1689934114.616,20.508,27.832,29.785,-6.348,29.785
1689934114.620,20.020,25.879,27.832,-13.672,22.949
1689934114.624,28.809,29.785,23.926,26.367,74.219
1689934114.628,36.621,32.715,20.020,85.449,58.105
1689934114.632,41.992,28.320,18.555,72.754,22.461
1689934114.636,36.133,27.832,24.414,3.418,23.926
1689934114.640,30.762,31.738,26.367,-11.719,8.301
1689934114.644,33.203,38.086,25.879,34.668,-23.438
1689934114.647,37.109,32.227,24.902,83.496,11.719
1689934114.651,37.598,24.902,23.926,65.918,6.348
1689934114.655,32.227,31.250,23.438,8.789,1.465
1689934114.659,23.926,34.180,22.461,-15.625,20.020
1689934114.663,30.273,33.203,27.344,17.578,21.973
1689934114.667,40.527,36.133,28.809,79.590,40.527
1689934114.671,32.227,28.320,21.484,71.777,86.914
1689934114.675,20.020,22.949,20.020,1.465,61.523
1689934114.679,15.137,24.414,22.461,-34.668,25.391
1689934114.683,17.578,9.766,22.949,-2.930,-7.324
1689934114.687,18.066,0.977,23.926,62.012,-28.809
1689934114.691,17.090,13.672,24.414,67.871,23.438
1689934114.694,8.301,20.508,25.879,0.977,-11.230
1689934114.698,-2.930,19.531,26.855,-36.621,43.945
1689934114.702,-0.977,22.461,24.414,-18.066,108.398
1689934114.706,3.418,22.461,22.949,34.180,28.809
1689934114.710,4.883,17.578,18.066,47.363,20.996
