timestamps,TP9,AF7,AF8,TP10,Right AUX
1678714318.422,20.020,16.602,38.574,-1.953,92.285
1678714318.426,-13.184,19.043,50.293,-15.137,69.336
1678714318.429,-33.691,18.066,51.758,-43.457,62.012
1678714318.433,-8.301,18.555,44.434,-47.363,30.762
1678714318.437,6.348,14.648,41.504,-23.926,-18.555
1678714318.441,0.977,15.137,42.969,3.906,-13.672
1678714318.445,-11.719,22.461,48.828,-17.578,58.105
1678714318.449,-17.578,22.461,52.246,-63.965,46.875
1678714318.453,-19.043,16.602,48.340,-35.156,3.906
1678714318.457,-13.184,7.324,41.992,-10.742,25.879
1678714318.461,17.090,8.301,41.016,-9.277,-9.277
1678714318.465,-2.441,15.625,43.457,-16.113,11.230
1678714318.468,-35.156,20.020,50.293,-41.992,4.883
1678714318.472,-14.160,20.996,46.875,-37.109,-57.617
1678714318.476,13.672,17.090,35.156,-15.137,-1.953
1678714318.480,20.508,14.648,29.297,-11.230,37.109
1678714318.484,2.930,17.578,39.551,-23.438,34.668
1678714318.488,-30.273,24.414,53.223,-42.480,48.828
1678714318.492,-30.273,26.855,50.781,-51.270,101.074
1678714318.496,-4.395,19.531,43.457,-27.832,111.816
1678714318.500,1.465,18.066,43.945,-5.371,111.816
1678714318.504,-4.395,24.902,52.246,-15.137,126.953
1678714318.508,-33.691,23.926,58.594,-45.898,124.023
1678714318.511,-71.289,22.461,63.965,-69.336,152.832
1678714318.515,-58.105,27.344,62.012,-89.355,54.199
1678714318.519,-42.480,30.762,58.594,-77.637,-7.812
1678714318.523,-83.984,33.691,71.777,-98.145,2.441
1678714318.527,-143.066,38.574,82.031,-144.531,15.625
1678714318.531,-154.297,43.945,84.473,-189.453,62.500
1678714318.535,-171.875,25.391,89.355,-207.031,49.805
1678714318.539,-191.406,-5.371,88.867,-199.707,16.113
1678714318.543,-188.477,20.020,80.078,-221.191,-63.965
1678714318.547,-226.074,56.152,86.426,-248.047,-64.941
1678714318.551,-236.328,58.105,95.215,-260.742,-40.039
1678714318.554,-237.305,42.969,84.961,-251.465,-1.953
1678714318.558,-238.281,33.691,79.590,-230.469,83.984
1678714318.562,-202.148,14.160,89.355,-207.520,38.574
1678714318.566,-216.797,2.441,91.309,-234.375,-6.836
1678714318.570,-233.887,31.250,83.984,-268.066,19.531
1678714318.574,-175.781,31.738,88.379,-205.078,22.461
1678714318.578,-178.223,20.508,83.984,-168.457,8.789
1678714318.582,-198.242,22.461,77.148,-192.871,37.598
1678714318.586,-162.598,23.438,76.660,-178.711,24.902
1678714318.590,-161.621,17.090,73.730,-169.922,51.270
1678714318.593,-127.930,5.859,76.172,-139.160,17.090
1678714318.597,-82.520,-8.789,64.941,-101.074,-57.129
1678714318.601,-81.543,-5.859,55.176,-74.707,-0.488
1678714318.605,-56.152,13.184,56.152,-74.219,32.715
1678714318.609,-50.293,10.742,58.594,-123.047,20.020
1678714318.613,-55.664,3.418,56.641,-100.098,44.922
1678714318.617,-11.719,0.488,43.945,-7.812,81.055
1678714318.621,6.348,-7.324,41.504,-1.953,47.852
1678714318.625,-17.090,-18.066,52.734,-14.160,-4.883
1678714318.629,-18.066,-30.762,58.105,-21.973,21.973
1678714318.633,2.441,-7.812,50.781,-28.809,88.379
1678714318.636,35.645,15.625,35.156,21.973,84.473
1678714318.640,58.105,8.789,29.785,41.016,59.570
1678714318.644,19.531,18.555,29.297,-25.879,13.184
1678714318.648,34.180,20.020,29.785,-38.086,-57.617
1678714318.652,52.734,-0.488,30.273,-4.883,4.395
1678714318.656,50.781,-5.859,28.809,24.414,43.457
1678714318.660,81.543,-1.465,30.762,75.684,44.922
1678714318.664,86.914,7.324,29.785,28.809,40.039
1678714318.668,26.367,13.184,35.645,-69.336,0.977
1678714318.672,24.414,7.324,38.574,-36.133,32.227
1678714318.675,65.430,4.883,31.250,65.918,40.039
1678714318.679,76.172,-1.465,28.320,78.125,21.973
1678714318.683,68.359,-4.883,30.762,11.230,15.137
1678714318.687,49.805,14.160,33.691,-9.277,12.695
1678714318.691,41.992,18.555,36.133,91.797,7.812
1678714318.695,53.711,9.277,31.250,128.418,-9.766
1678714318.699,67.871,5.371,22.461,93.750,4.395
1678714318.703,69.824,9.766,27.344,83.008,7.324
1678714318.707,38.574,16.113,36.133,4.883,27.344
1678714318.711,37.598,18.555,41.504,-6.348,69.824
1678714318.715,61.035,17.090,34.668,-5.371,23.926
1678714318.718,69.336,10.742,25.879,-19.043,-10.742
1678714318.722,57.129,8.301,31.250,11.230,-3.906
1678714318.726,20.020,15.625,38.086,32.715,2.930
1678714318.730,11.230,16.602,41.504,-12.207,44.922
1678714318.734,32.715,3.418,40.527,-73.242,105.469
1678714318.738,69.336,5.859,32.227,-21.973,88.867
1678714318.742,89.355,19.043,25.879,12.207,18.066
1678714318.746,57.129,14.160,34.668,-20.996,67.383
1678714318.750,0.977,12.207,39.062,-53.223,69.824
1678714318.754,17.090,23.926,34.668,-56.641,-11.230
1678714318.758,25.879,24.902,29.785,-20.508,39.062
1678714318.761,27.344,24.902,30.273,-28.809,109.375
1678714318.765,30.762,27.832,36.621,-50.781,81.055
1678714318.769,0.977,30.273,44.434,-63.477,62.012
1678714318.773,-8.301,27.344,44.434,-54.199,27.344
1678714318.777,39.062,20.020,36.133,-25.879,-2.441
1678714318.781,54.199,17.578,41.992,-26.367,11.719
1678714318.785,25.391,21.973,51.270,-38.086,41.016
1678714318.789,-11.230,24.902,52.246,-64.941,31.250
1678714318.793,-16.602,18.555,50.781,-53.711,7.812
1678714318.797,11.719,11.230,49.805,-11.719,5.859
1678714318.800,15.625,12.207,49.805,-0.488,-46.875
1678714318.804,2.930,19.531,56.641,1.953,-66.895
1678714318.808,-7.812,24.414,58.594,-25.391,31.738
1678714318.812,-20.508,20.508,56.152,-33.203,36.133
1678714318.816,15.625,18.555,60.059,0.977,37.109
1678714318.820,27.344,19.043,59.570,32.227,78.125
1678714318.824,1.953,18.066,60.059,0.488,-9.277
1678714318.828,-4.883,26.855,65.430,-17.578,1.953
1678714318.832,-0.977,26.367,65.430,-14.648,104.492
1678714318.836,10.742,16.602,57.617,4.395,98.633
1678714318.840,10.742,13.184,52.246,12.695,36.621
1678714318.843,14.648,21.484,56.641,13.184,19.531
1678714318.847,12.695,32.715,65.430,-17.090,-11.230
1678714318.851,-0.488,28.320,64.941,-51.758,-34.668
1678714318.855,-14.648,21.484,52.734,-54.199,15.137
1678714318.859,13.184,20.020,47.852,0.000,16.602
1678714318.863,-31.738,18.066,55.664,-7.324,53.711
1678714318.867,-65.430,21.973,62.500,-65.430,72.754
1678714318.871,1.953,26.855,60.059,-56.152,39.062
1678714318.875,22.949,25.879,50.293,-61.523,41.504
1678714318.879,22.461,21.973,48.828,9.766,63.477
1678714318.882,2.441,17.578,53.711,-3.418,83.496
1678714318.886,-26.367,20.508,61.523,-51.758,55.664
1678714318.890,-16.113,29.785,62.988,-9.766,68.848
1678714318.894,7.812,28.809,47.852,-14.648,47.852
1678714318.898,24.902,20.020,43.457,15.137,-6.348
1678714318.902,29.785,24.902,47.363,29.785,18.066
1678714318.906,6.836,32.227,53.223,16.113,58.594
1678714318.910,4.395,28.809,57.129,13.184,62.012
1678714318.914,2.930,24.414,46.875,-7.324,55.176
1678714318.918,3.906,14.160,38.574,30.273,48.340
1678714318.922,37.598,15.137,42.480,80.078,59.570
1678714318.925,20.020,22.949,48.828,20.508,13.184
1678714318.929,-27.344,18.555,48.340,-45.898,21.973
1678714318.933,-16.602,14.160,49.805,-3.906,61.523
1678714318.937,-12.695,36.133,41.992,28.320,65.918
1678714318.941,-10.254,35.645,36.133,18.066,20.508
1678714318.945,26.855,17.090,43.945,34.180,-26.367
1678714318.949,-3.906,17.090,48.828,11.719,43.945
1678714318.953,1.465,19.531,48.828,-7.812,27.344
1678714318.957,35.156,15.625,46.387,37.109,67.871
1678714318.961,21.484,10.742,43.457,103.027,59.082
1678714318.965,2.930,13.184,43.457,52.246,29.297
1678714318.968,-25.391,23.438,54.199,-13.672,68.848
1678714318.972,-28.320,27.344,46.387,-6.348,2.930
1678714318.976,17.090,17.578,29.297,4.883,-12.695
1678714318.980,25.391,17.090,31.250,40.527,68.359
1678714318.984,11.230,22.461,37.109,8.789,-5.371
1678714318.988,-13.672,31.250,38.574,-32.227,-24.902
1678714318.992,-42.969,33.691,36.133,-14.648,63.965
1678714318.996,-0.977,20.508,33.203,25.391,83.008
1678714319.000,37.109,17.090,29.785,38.574,57.617
1678714319.004,20.508,25.391,32.227,19.531,52.734
1678714319.007,-21.484,25.879,37.109,-6.348,22.949
1678714319.011,-37.109,23.926,43.457,-10.742,-20.020
1678714319.015,2.930,23.438,37.598,-3.418,0.977
1678714319.019,-2.930,15.625,25.391,19.531,-2.441
1678714319.023,-18.555,15.625,30.762,19.531,35.645
1678714319.027,-13.672,23.926,41.992,-25.391,46.875
1678714319.031,-16.113,24.414,41.016,-44.922,14.648
1678714319.035,19.531,19.531,27.832,-12.207,35.156
1678714319.039,17.578,11.230,22.461,19.043,15.625
1678714319.043,-13.672,8.301,28.320,26.855,14.160
1678714319.047,-19.043,14.648,35.645,-6.348,27.344
1678714319.050,-21.973,22.461,36.621,-49.316,55.176
1678714319.054,5.371,20.996,30.273,-6.836,81.055
1678714319.058,25.391,21.484,26.855,44.434,52.246
1678714319.062,13.672,19.531,27.344,19.043,41.504
1678714319.066,-16.113,20.996,30.273,-31.250,19.043
1678714319.070,-35.156,25.391,36.621,-29.785,47.363
1678714319.074,-15.625,19.043,32.227,-1.953,57.129
1678714319.078,32.715,17.090,17.090,6.348,32.715
1678714319.082,39.062,19.531,23.926,19.043,36.133
1678714319.086,3.418,21.484,39.062,-7.324,21.484
1678714319.090,-32.227,26.367,36.621,-48.828,31.738
1678714319.093,-35.156,25.391,30.762,-11.719,24.902
1678714319.097,19.043,16.602,27.344,39.551,6.348
1678714319.101,33.691,16.602,28.809,32.227,6.348
1678714319.105,-5.371,23.438,38.086,-15.137,-18.555
1678714319.109,-20.996,25.879,38.086,-32.715,-1.953
1678714319.113,-15.625,23.926,31.738,-16.113,21.484
1678714319.117,6.836,17.090,27.832,0.488,40.527
1678714319.121,33.203,14.648,26.855,25.879,18.066
1678714319.125,5.859,20.020,32.227,-7.324,-11.230
1678714319.129,-33.203,25.879,41.016,-50.781,42.969
1678714319.132,-1.953,25.391,37.598,-29.785,23.438
1678714319.136,27.832,18.066,27.344,3.418,45.898
1678714319.140,20.996,21.973,22.949,29.785,52.734
1678714319.144,0.977,27.832,29.785,3.418,-29.785
1678714319.148,-17.578,28.809,38.086,-33.691,0.000
1678714319.152,-12.207,27.344,34.668,-38.086,12.695
1678714319.156,5.859,16.113,20.508,-17.578,4.883
1678714319.160,27.344,15.137,16.113,20.996,77.148
1678714319.164,16.113,18.066,28.809,-3.906,80.078
1678714319.168,-3.418,22.949,35.645,-41.016,37.598
1678714319.172,-5.371,28.809,37.109,-45.898,-4.883
1678714319.175,7.324,23.438,32.715,-9.277,-56.641
1678714319.179,27.832,19.531,23.926,29.297,-7.324
1678714319.183,23.926,25.391,24.414,-0.488,19.043
1678714319.187,-11.719,30.762,37.598,-37.109,16.602
1678714319.191,-17.578,30.762,43.457,-29.785,28.320
1678714319.195,8.789,26.855,30.273,11.230,41.992
1678714319.199,23.926,20.996,19.043,34.668,41.504
1678714319.203,24.902,23.926,26.367,31.738,65.430
1678714319.207,9.766,33.691,36.621,-5.859,54.688
1678714319.211,-14.648,38.086,30.273,-31.738,29.297
1678714319.214,7.812,27.832,23.926,-0.977,35.156
1678714319.218,37.109,18.555,24.414,37.598,42.480
1678714319.222,23.926,22.461,28.320,47.363,31.738
1678714319.226,3.906,28.809,36.133,11.719,37.598
1678714319.230,3.418,32.227,35.645,-22.461,-5.371
1678714319.234,12.207,24.414,25.391,-1.953,-0.977
1678714319.238,20.996,18.066,16.113,38.574,48.340
1678714319.242,32.227,21.973,19.043,44.434,22.461
1678714319.246,1.465,28.320,31.250,12.695,59.570
1678714319.250,-29.297,30.273,37.109,-21.484,37.598
1678714319.254,2.930,22.949,28.809,-7.324,39.551
1678714319.257,26.855,15.625,18.066,37.109,37.109
1678714319.261,14.648,20.996,20.508,43.945,40.039
1678714319.265,8.301,28.320,30.273,5.371,21.484
1678714319.269,-11.230,28.320,34.668,-23.438,27.344
1678714319.273,-4.883,16.602,33.203,19.043,83.984
1678714319.277,21.973,8.301,26.855,68.359,87.402
1678714319.281,26.855,14.160,27.832,41.016,61.035
1678714319.285,-11.230,19.043,41.016,8.789,62.988
1678714319.289,-56.152,16.113,50.781,4.883,12.695
1678714319.293,-13.184,9.766,50.781,-16.113,-14.160
1678714319.297,6.836,0.000,47.363,23.438,69.824
1678714319.300,-15.625,-7.812,48.340,52.734,25.879
1678714319.304,-20.508,-2.930,55.664,28.320,-39.551
1678714319.308,-55.176,-3.418,64.941,-12.207,-24.414
1678714319.312,-66.895,-10.254,62.500,-34.180,25.879
1678714319.316,-26.367,-11.719,55.176,6.836,65.430
1678714319.320,-13.672,-13.184,47.852,51.758,84.961
1678714319.324,-20.996,-4.883,52.246,50.293,85.938
1678714319.328,-32.227,1.465,56.152,-5.859,63.965
1678714319.332,-3.418,2.441,56.152,-33.203,58.105
1678714319.336,11.230,-1.465,50.293,10.254,89.355
1678714319.339,-2.930,-3.418,45.898,59.570,95.215
1678714319.343,-1.465,-0.488,53.711,36.621,104.980
1678714319.347,-31.738,-4.395,61.523,-17.578,89.355
1678714319.351,-42.480,-5.371,59.082,-24.414,57.617
1678714319.355,-9.277,-2.441,53.223,18.066,24.414
1678714319.359,14.648,2.930,48.828,48.828,49.316
1678714319.363,9.277,12.695,50.293,38.086,-1.953
1678714319.367,-16.113,19.531,56.152,-8.789,-58.594
1678714319.371,-30.762,21.484,59.082,-32.227,8.789
1678714319.375,14.160,13.184,53.223,19.531,37.598
1678714319.379,48.340,6.836,44.434,67.871,29.297
1678714319.382,38.086,11.230,45.898,64.453,-14.160
1678714319.386,16.602,18.555,54.688,31.250,-0.488
1678714319.390,3.906,22.949,56.152,2.441,24.902
1678714319.394,23.926,12.207,45.898,27.832,2.441
1678714319.398,70.312,-1.953,38.086,76.172,-42.480
1678714319.402,71.289,4.395,39.062,71.289,2.441
1678714319.406,31.738,20.996,56.152,27.832,55.176
1678714319.410,19.043,25.879,60.547,4.395,40.039
1678714319.414,41.992,21.484,52.246,30.762,29.785
1678714319.418,62.012,15.137,48.340,82.520,-14.648
1678714319.422,70.801,16.602,47.363,101.074,33.203
1678714319.425,60.059,24.902,57.617,58.105,58.594
1678714319.429,25.391,27.832,62.988,-3.418,24.414
1678714319.433,27.344,23.438,56.641,18.066,52.734
1678714319.437,61.035,17.090,45.410,54.688,63.477
1678714319.441,67.871,15.137,38.574,58.105,63.965
1678714319.445,39.062,21.973,45.898,54.688,75.684
1678714319.449,7.812,25.391,50.293,22.949,64.941
1678714319.453,17.578,21.484,46.875,13.672,67.871
1678714319.457,55.664,16.602,38.574,60.547,75.195
1678714319.461,74.707,14.160,34.668,90.332,45.410
1678714319.464,45.410,21.484,43.945,66.895,5.859
1678714319.468,3.906,21.973,48.828,10.254,9.766
1678714319.472,6.348,16.113,40.527,10.254,38.574
1678714319.476,50.293,15.625,30.273,62.012,66.406
1678714319.480,60.059,14.160,28.320,71.777,74.707
1678714319.484,35.645,18.066,33.691,38.574,58.105
1678714319.488,8.301,25.391,44.434,0.488,-4.883
1678714319.492,6.348,21.973,40.527,-0.977,-39.551
1678714319.496,37.109,15.137,31.738,48.828,46.387
1678714319.500,50.293,13.184,36.621,77.637,58.594
1678714319.504,32.715,16.113,43.457,31.738,1.953
1678714319.507,14.160,19.531,51.758,0.000,0.000
1678714319.511,8.789,18.555,48.340,-7.324,9.766
1678714319.515,27.832,13.672,35.645,15.625,-14.648
1678714319.519,50.781,10.742,33.691,61.523,25.879
1678714319.523,24.902,14.648,41.504,38.574,70.801
1678714319.527,-8.789,18.555,47.363,-15.137,16.602
1678714319.531,-3.906,19.043,44.922,-39.551,28.809
1678714319.535,13.184,15.625,42.480,7.812,22.949
1678714319.539,38.574,10.254,41.992,64.941,-15.137
1678714319.543,43.945,16.113,44.434,44.922,14.648
1678714319.547,6.348,22.461,56.152,-0.977,20.020
1678714319.550,-9.277,22.949,58.594,-30.273,64.453
1678714319.554,14.160,12.207,48.828,-5.859,52.734
1678714319.558,44.922,7.812,39.062,51.758,2.930
1678714319.562,44.434,13.672,40.527,58.594,59.570
1678714319.566,19.043,19.043,49.316,2.930,48.340
1678714319.570,-6.348,19.043,55.664,-34.668,40.039
1678714319.574,-13.672,10.254,45.410,-14.648,26.855
1678714319.578,21.484,7.812,36.621,19.043,21.973
1678714319.582,26.367,10.742,41.504,25.879,91.797
1678714319.586,-9.766,17.090,49.316,-8.789,54.199
1678714319.589,-24.414,24.414,47.852,-43.457,18.066
1678714319.593,-4.883,22.949,41.992,-17.090,26.855
1678714319.597,26.367,18.555,39.062,52.246,-16.602
1678714319.601,13.184,18.555,34.668,39.062,51.758
1678714319.605,-9.766,22.949,40.527,-12.207,115.723
1678714319.609,-12.207,27.344,56.641,-20.996,51.758
1678714319.613,-2.930,20.508,51.270,-12.207,54.688
1678714319.617,45.410,17.090,36.621,23.438,109.375
1678714319.621,35.156,21.973,39.551,33.203,38.086
1678714319.625,-11.719,21.973,50.781,-1.465,15.137
1678714319.629,-28.320,26.855,57.617,-51.270,21.973
1678714319.632,-22.461,21.484,49.805,-43.457,4.395
1678714319.636,7.324,10.254,36.621,14.648,12.695
1678714319.640,37.598,10.742,32.227,50.293,0.000
1678714319.644,38.086,18.555,39.551,36.621,-73.730
1678714319.648,-19.043,21.973,48.828,-40.527,-78.125
1678714319.652,-25.391,14.160,44.434,-48.340,-18.555
1678714319.656,4.395,5.371,37.109,14.648,-2.441
1678714319.660,21.973,10.742,38.086,38.574,-2.930
1678714319.664,-1.953,16.602,46.387,20.508,39.062
1678714319.668,-24.414,18.555,53.711,-15.137,67.871
1678714319.671,8.301,19.043,54.199,-34.180,131.836
1678714319.675,30.762,15.625,43.945,-6.836,68.848
1678714319.679,18.066,9.766,36.133,28.320,1.953
1678714319.683,12.695,9.277,40.527,18.555,29.297
1678714319.687,16.602,14.648,49.805,-20.996,7.324
1678714319.691,-4.883,18.066,55.664,-18.555,30.273
1678714319.695,-21.973,11.230,45.410,17.090,66.406
1678714319.699,17.578,12.207,39.062,38.574,107.422
1678714319.703,42.969,20.020,44.434,17.578,77.637
1678714319.707,6.348,23.926,48.828,-22.949,1.953
1678714319.711,4.395,25.879,45.410,-44.922,-40.039
1678714319.714,2.930,16.113,40.039,-2.930,-5.371
1678714319.718,-6.836,9.766,40.527,39.062,11.230
1678714319.722,5.859,14.648,41.504,23.926,39.551
1678714319.726,-15.625,21.484,41.504,-12.207,44.922
1678714319.730,-31.738,25.391,46.875,-20.996,17.090
1678714319.734,0.488,17.578,46.387,4.883,41.016
1678714319.738,41.504,11.230,36.621,48.828,40.039
1678714319.742,19.531,15.137,33.691,47.852,46.387
1678714319.746,3.906,21.973,37.598,-9.277,51.270
1678714319.750,-8.301,24.414,36.621,-41.504,26.855
1678714319.754,12.207,20.996,29.785,-26.855,25.391
1678714319.757,43.457,15.137,25.391,10.742,6.836
1678714319.761,31.738,18.066,30.273,16.113,42.480
1678714319.765,10.742,23.926,40.527,-19.531,115.234
1678714319.769,5.859,22.949,42.480,-33.691,77.148
1678714319.773,38.086,21.484,36.621,-14.648,6.836
1678714319.777,55.176,16.113,32.227,9.766,-12.207
1678714319.781,32.715,15.625,27.832,18.555,7.812
1678714319.785,20.996,19.043,31.250,-1.953,41.504
1678714319.789,13.184,19.531,45.898,-16.113,18.066
1678714319.793,27.832,15.137,45.898,-2.930,-16.113
1678714319.796,46.387,5.371,35.156,35.645,68.359
1678714319.800,53.711,3.906,33.691,55.664,68.359
1678714319.804,46.875,10.254,40.527,37.109,-18.066
1678714319.808,44.434,16.113,44.922,1.465,-36.133
1678714319.812,42.969,10.254,41.016,-4.395,-4.395
1678714319.816,79.102,2.930,33.203,39.551,13.672
1678714319.820,108.398,3.906,34.180,78.125,-8.301
1678714319.824,75.684,2.930,40.039,47.363,-4.395
1678714319.828,44.922,3.906,44.434,1.953,-26.367
1678714319.832,47.363,0.488,44.434,11.230,15.137
1678714319.836,84.961,-1.953,39.551,56.152,123.047
1678714319.839,94.238,0.977,34.180,86.914,124.512
1678714319.843,78.613,3.418,35.645,64.941,88.379
1678714319.847,74.219,9.277,44.922,21.484,79.102
1678714319.851,69.824,9.766,47.363,18.555,98.145
1678714319.855,80.566,6.348,41.016,55.176,-13.672
1678714319.859,101.562,2.930,32.227,80.566,-20.996
1678714319.863,93.750,6.348,38.086,68.359,7.812
1678714319.867,71.777,14.648,45.410,35.156,-42.969
1678714319.871,74.219,14.160,41.992,20.020,30.762
1678714319.875,87.402,8.789,35.156,48.340,47.363
1678714319.879,109.863,8.301,31.738,93.262,41.016
1678714319.882,104.980,14.160,37.109,73.242,44.434
1678714319.886,59.082,17.090,49.805,16.602,25.391
1678714319.890,46.387,18.555,53.223,14.160,20.996
1678714319.894,66.895,16.113,46.875,35.645,26.367
1678714319.898,85.449,12.207,43.945,72.754,46.387
1678714319.902,77.637,11.719,42.480,74.219,52.246
1678714319.906,69.336,15.625,46.875,29.785,-0.488
1678714319.910,59.570,18.555,49.316,-5.859,42.480
1678714319.914,44.434,14.160,41.504,16.602,30.273
1678714319.918,73.242,9.766,35.156,61.523,-0.488
1678714319.921,74.219,11.719,36.133,51.270,12.207
1678714319.925,37.109,17.578,41.016,18.066,8.789
1678714319.929,24.902,18.066,43.457,2.930,45.898
1678714319.933,34.180,15.137,40.527,17.578,39.062
1678714319.937,62.012,12.695,37.109,48.340,29.785
1678714319.941,67.871,13.672,38.574,48.828,-57.617
1678714319.945,31.250,18.066,42.969,19.043,-63.965
1678714319.949,0.977,16.602,47.363,-16.113,74.219
1678714319.953,24.902,16.602,43.945,-16.602,81.543
1678714319.957,55.664,14.160,38.086,29.297,68.359
1678714319.961,46.875,10.254,35.645,33.691,26.367
1678714319.964,26.367,12.207,35.645,-6.348,2.441
1678714319.968,23.926,16.602,41.992,-21.973,44.922
1678714319.972,7.324,14.648,40.039,-18.066,32.227
1678714319.976,12.695,10.742,31.250,4.395,26.367
1678714319.980,37.598,12.695,29.785,25.391,57.617
1678714319.984,33.691,19.043,36.621,9.277,52.734
1678714319.988,-4.883,22.949,41.504,-30.273,12.207
1678714319.992,-13.184,20.996,39.062,-24.414,2.441
1678714319.996,16.113,17.090,29.785,17.578,65.430
1678714320.000,25.879,16.113,30.273,44.922,83.984
1678714320.003,14.160,21.973,43.457,19.531,39.551
1678714320.007,1.953,23.926,46.387,-31.738,77.148
1678714320.011,1.465,16.602,43.457,-37.109,126.953
1678714320.015,11.719,9.766,43.457,-5.859,109.863
1678714320.019,21.484,9.766,45.898,27.344,69.336
1678714320.023,13.184,10.742,49.805,14.160,44.434
1678714320.027,-2.930,17.090,51.758,-37.109,12.695
1678714320.031,-10.254,20.996,50.293,-37.109,47.363
1678714320.035,10.254,16.113,44.434,0.000,63.477
1678714320.039,27.344,14.648,36.133,21.973,-7.324
1678714320.043,31.738,15.137,40.527,25.391,-46.875
1678714320.046,24.902,18.555,59.082,4.883,-59.570
1678714320.050,-5.859,23.926,57.617,-35.156,27.344
1678714320.054,-7.324,17.578,41.016,-9.766,81.055
1678714320.058,42.480,14.160,35.156,48.828,41.016
1678714320.062,43.945,18.066,36.133,41.016,31.250
1678714320.066,15.625,21.484,41.016,-1.465,47.852
1678714320.070,22.461,20.508,46.387,-23.438,92.285
1678714320.074,33.203,16.113,42.969,3.418,43.945
1678714320.078,45.898,16.113,39.551,41.504,21.484
1678714320.082,34.668,20.996,44.434,48.340,58.105
1678714320.086,20.996,26.855,48.828,13.672,46.875
1678714320.089,7.324,26.855,49.316,-22.949,76.172
1678714320.093,11.230,21.973,45.410,-10.742,105.957
1678714320.097,33.203,18.066,35.645,33.691,52.734
1678714320.101,48.340,19.043,32.227,38.086,27.344
1678714320.105,36.133,25.391,43.457,4.395,5.859
1678714320.109,14.648,29.297,49.805,-11.230,14.160
1678714320.113,26.855,27.832,45.898,4.395,81.055
1678714320.117,48.828,23.926,40.527,34.668,61.523
1678714320.121,58.105,21.973,42.480,44.434,0.488
1678714320.125,22.949,25.879,47.363,17.090,16.113
1678714320.128,3.906,31.738,49.805,-19.531,1.465
1678714320.132,18.066,29.297,46.875,-20.996,-4.883
1678714320.136,25.879,26.367,42.480,22.949,16.602
1678714320.140,45.898,27.832,40.039,47.852,0.488
1678714320.144,30.273,28.320,38.086,17.578,13.672
1678714320.148,0.000,34.180,41.504,-20.996,88.379
1678714320.152,8.301,36.133,37.598,-16.602,90.820
1678714320.156,37.109,27.832,34.180,17.090,49.805
1678714320.160,59.570,22.461,33.691,39.551,52.734
1678714320.164,34.668,27.344,34.180,18.066,20.020
1678714320.168,13.672,32.715,37.598,-26.367,27.344
1678714320.171,5.371,30.762,35.645,-26.367,31.738
1678714320.175,10.742,24.414,29.297,12.207,-10.254
1678714320.179,40.039,24.414,23.926,45.410,-22.461
1678714320.183,31.738,28.809,26.855,22.461,16.602
1678714320.187,17.578,30.762,30.273,-21.484,32.227
1678714320.191,10.742,30.762,27.832,-36.133,8.789
1678714320.195,20.996,27.344,25.391,0.977,8.301
1678714320.199,29.297,24.902,22.461,28.320,11.719
1678714320.203,2.930,25.391,25.391,3.418,44.434
1678714320.207,-14.648,30.762,29.297,-24.902,46.387
1678714320.211,-1.465,31.250,31.738,-34.668,58.105
1678714320.214,20.508,25.391,26.855,-15.625,27.832
1678714320.218,32.227,20.508,20.508,16.113,35.156
1678714320.222,29.785,24.902,25.391,16.602,55.664
1678714320.226,12.695,33.203,33.203,-9.766,27.832
1678714320.230,1.953,35.156,34.180,-27.344,-3.418
1678714320.234,34.180,29.785,24.902,-18.555,-51.270
1678714320.238,44.434,25.879,18.555,19.043,-6.836
1678714320.242,21.973,27.344,22.461,15.137,26.855
1678714320.246,6.348,36.133,29.297,-32.227,101.562
1678714320.250,-0.488,35.645,30.762,-39.551,105.957
1678714320.253,16.602,27.344,25.879,-17.090,86.426
1678714320.257,53.223,27.344,20.020,23.926,74.219
1678714320.261,43.945,30.273,20.996,23.438,34.668
1678714320.265,-3.418,33.691,28.809,-23.926,35.645
1678714320.269,-10.254,37.598,27.832,-42.480,-6.348
1678714320.273,6.836,35.645,24.902,-20.996,-9.277
1678714320.277,18.066,29.297,20.508,14.160,20.996
1678714320.281,26.367,30.273,14.648,11.719,11.230
1678714320.285,21.973,36.621,21.484,-18.066,31.738
1678714320.289,-2.441,38.086,28.320,-43.945,55.664
1678714320.293,-10.254,34.180,24.902,-21.973,56.641
1678714320.296,15.137,30.273,16.602,2.441,37.598
1678714320.300,42.480,31.250,19.043,2.441,67.383
1678714320.304,16.602,35.645,25.391,-21.973,67.383
1678714320.308,-23.926,37.598,27.832,-51.270,48.340
1678714320.312,-17.578,33.691,24.414,-38.086,61.523
1678714320.316,21.484,32.715,19.043,-0.977,18.555
1678714320.320,32.715,34.668,20.996,16.602,-20.508
1678714320.324,7.812,35.156,26.855,-14.648,26.367
1678714320.328,-10.254,36.621,34.668,-49.316,81.543
1678714320.332,-13.184,33.203,34.180,-44.434,39.062
1678714320.335,20.996,27.832,28.320,-6.836,-1.465
1678714320.339,47.363,25.879,24.414,11.719,36.133
1678714320.343,21.973,28.809,25.879,-3.906,57.617
1678714320.347,-15.625,35.156,26.367,-39.551,44.434
1678714320.351,-7.324,35.645,29.785,-47.852,65.918
1678714320.355,10.742,28.809,29.785,-8.789,16.113
1678714320.359,22.461,24.902,23.926,20.508,-20.508
1678714320.363,17.090,27.344,31.738,7.324,34.668
1678714320.367,-4.883,29.785,41.992,-30.762,42.969
1678714320.371,-3.906,28.809,36.621,-40.039,18.066
1678714320.375,16.113,28.809,29.297,-13.184,40.039
1678714320.378,32.227,25.391,28.809,20.508,65.918
1678714320.382,15.137,23.438,28.320,8.789,61.523
1678714320.386,-18.066,32.227,32.227,-34.180,15.625
1678714320.390,-8.301,36.621,35.645,-40.039,87.891
1678714320.394,8.301,29.297,31.250,-8.789,88.867
1678714320.398,17.578,24.414,21.973,20.508,-41.016
1678714320.402,9.766,27.344,24.902,24.902,-20.996
1678714320.406,-12.207,30.273,35.156,-22.461,26.367
1678714320.410,-24.902,30.762,35.156,-38.574,15.625
1678714320.414,-13.672,26.367,27.832,-10.254,19.043
1678714320.418,11.719,20.996,17.578,13.184,57.617
1678714320.421,20.996,23.926,18.066,11.719,53.711
1678714320.425,6.348,30.762,27.344,-29.297,63.477
1678714320.429,-24.414,26.855,31.250,-47.363,63.477
1678714320.433,-20.996,22.461,31.738,-18.555,18.555
1678714320.437,7.324,19.531,26.367,13.672,-28.320
1678714320.441,13.184,19.531,25.391,33.203,32.227
1678714320.445,-9.277,24.414,33.203,-2.441,57.617
1678714320.449,-21.484,27.832,37.109,-42.480,53.223
1678714320.453,-13.184,26.855,34.668,-21.973,30.273
1678714320.457,32.227,22.949,30.273,9.766,-35.156
1678714320.460,39.551,20.508,30.273,33.691,1.465
1678714320.464,-21.973,22.461,35.156,4.395,17.578
1678714320.468,-43.945,26.367,39.062,-36.133,71.289
1678714320.472,-9.766,20.508,37.598,-24.414,71.777
1678714320.476,7.812,16.113,35.156,5.371,17.578
1678714320.480,6.348,16.113,40.039,27.344,72.754
1678714320.484,0.488,20.508,49.316,-0.488,56.152
1678714320.488,-14.160,22.461,51.758,-25.391,-15.137
1678714320.492,-9.277,20.508,46.387,-21.973,27.832
1678714320.496,8.301,15.625,41.016,-5.371,80.566
1678714320.500,23.438,14.648,40.527,11.719,67.871
1678714320.503,9.766,18.555,50.293,-7.324,111.328
1678714320.507,-13.184,20.508,55.176,-27.832,118.164
1678714320.511,-20.996,17.090,53.711,-27.344,35.156
1678714320.515,-4.395,11.230,53.223,-7.324,26.855
1678714320.519,4.395,5.859,46.387,21.973,37.109
1678714320.523,-7.324,9.766,53.223,31.250,-47.363
1678714320.527,-15.137,16.113,60.059,-12.207,-45.898
1678714320.531,-22.461,12.695,51.758,-48.828,36.621
1678714320.535,0.977,8.301,41.992,-17.090,20.508
1678714320.539,32.715,6.836,38.574,20.508,9.277
1678714320.543,10.742,8.789,42.969,9.277,62.500
1678714320.546,-31.738,11.230,47.363,-25.879,46.875
1678714320.550,-36.133,8.789,43.945,-37.598,30.762
1678714320.554,-6.348,5.859,39.062,-12.207,16.113
1678714320.558,10.742,5.371,41.992,20.508,-1.465
1678714320.562,4.395,8.301,44.922,11.230,18.066
1678714320.566,-23.438,9.766,45.410,-30.273,68.848
1678714320.570,-29.785,10.742,48.340,-40.527,91.797
1678714320.574,-2.441,10.254,43.945,-5.371,61.523
1678714320.578,28.809,8.301,38.574,32.227,79.590
1678714320.582,20.020,10.254,41.016,22.461,31.738
1678714320.585,-7.324,13.184,47.363,-1.465,-46.387
1678714320.589,-12.207,13.672,47.852,-27.344,-33.203
1678714320.593,-3.906,10.254,40.527,-16.602,41.992
1678714320.597,9.277,7.324,38.086,20.508,94.238
1678714320.601,20.020,11.230,39.551,27.344,30.273
1678714320.605,2.930,17.578,40.039,-7.812,24.902
1678714320.609,-26.367,17.090,40.527,-40.039,36.133
1678714320.613,-12.695,11.230,39.551,-13.672,-12.207
1678714320.617,13.184,5.859,32.227,28.809,50.293
1678714320.621,24.902,9.766,30.273,25.391,46.875
1678714320.625,7.812,14.648,38.574,-7.812,28.320
1678714320.628,-19.531,18.066,45.410,-24.902,32.715
1678714320.632,-17.090,19.531,41.504,-7.812,26.855
1678714320.636,14.648,13.672,32.227,17.090,19.043
1678714320.640,26.367,12.695,31.738,18.066,2.441
1678714320.644,-0.488,18.066,36.621,-11.230,3.906
1678714320.648,-13.672,22.461,41.016,-35.645,-12.207
1678714320.652,-21.484,15.625,38.086,-24.414,32.715
1678714320.656,-6.348,8.789,28.809,10.742,53.711
1678714320.660,21.484,10.742,26.367,31.250,85.938
1678714320.664,-0.488,12.207,32.227,4.883,113.770
1678714320.667,-31.250,15.625,38.086,-34.668,31.250
1678714320.671,-18.555,16.113,28.809,-32.227,12.207
1678714320.675,1.953,10.254,20.996,5.859,80.078
1678714320.679,14.160,9.277,22.461,17.578,82.031
1678714320.683,4.395,15.625,20.020,-5.371,77.637
1678714320.687,-13.184,17.090,27.344,-36.621,57.617
1678714320.691,-5.859,20.996,31.738,-28.320,-2.441
1678714320.695,4.883,18.555,24.902,6.836,-37.598
1678714320.699,17.090,12.207,17.090,20.508,59.570
1678714320.703,11.719,15.625,20.020,5.371,98.145
1678714320.707,-9.766,17.578,27.344,-32.227,40.039
1678714320.710,-13.672,18.555,27.344,-35.156,41.992
1678714320.714,-3.418,13.672,20.996,5.371,35.156
1678714320.718,22.949,7.812,14.160,39.062,52.246
1678714320.722,8.301,10.254,20.996,19.531,37.598
1678714320.726,-23.438,17.578,30.273,-14.648,-25.879
1678714320.730,-23.438,20.996,32.227,-24.902,-25.391
1678714320.734,-7.812,14.160,26.367,-10.742,58.594
1678714320.738,33.203,11.719,20.508,23.926,87.891
1678714320.742,27.344,15.625,24.414,30.762,20.508
1678714320.746,-5.859,19.531,29.785,-9.766,31.738
1678714320.750,-13.672,20.508,32.715,-23.438,11.719
1678714320.753,0.000,16.113,33.691,-0.977,9.766
1678714320.757,33.203,11.719,26.367,27.832,1.953
1678714320.761,17.090,12.695,23.926,31.738,13.184
1678714320.765,-10.254,18.555,33.203,-9.766,56.152
1678714320.769,-20.996,21.484,36.133,-39.062,83.008
1678714320.773,-20.508,16.602,28.809,-15.625,61.035
1678714320.777,20.020,12.207,24.902,23.438,13.184
1678714320.781,25.879,17.090,27.344,25.391,-23.438
1678714320.785,-20.020,23.438,36.133,-11.719,-28.320
1678714320.789,-34.180,23.926,35.156,-40.527,-5.371
1678714320.792,-3.906,19.043,25.391,-34.180,24.902
1678714320.796,23.438,15.137,26.855,5.859,35.156
1678714320.800,18.066,15.625,33.691,20.996,29.297
1678714320.804,-13.672,17.090,38.086,-10.742,34.668
1678714320.808,-28.809,20.020,39.062,-32.227,21.973
1678714320.812,-17.090,17.578,33.203,-28.809,51.270
1678714320.816,8.301,13.672,27.832,6.348,64.453
1678714320.820,30.273,17.578,26.855,23.438,58.594
1678714320.824,9.766,24.414,31.738,-10.254,12.207
1678714320.828,-19.043,27.344,37.598,-39.062,-29.785
1678714320.832,-14.648,23.926,33.691,-37.109,-5.859
1678714320.835,14.648,17.090,23.926,3.418,26.367
1678714320.839,27.832,15.625,21.484,31.250,56.152
1678714320.843,9.277,22.461,32.227,6.836,21.484
1678714320.847,-10.254,22.949,34.668,-31.738,-19.043
1678714320.851,2.930,17.090,28.809,-38.086,49.805
1678714320.855,20.996,15.625,26.367,7.812,78.613
1678714320.859,24.414,11.230,19.043,26.855,73.242
1678714320.863,10.742,15.137,20.508,-4.395,70.312
1678714320.867,-12.695,25.391,33.691,-28.809,10.254
1678714320.871,-7.812,26.367,38.574,-36.621,12.207
1678714320.875,13.184,20.020,36.133,-4.883,40.039
1678714320.878,26.367,16.113,35.645,22.461,40.527
1678714320.882,9.766,19.043,36.621,20.996,2.441
1678714320.886,-18.066,21.973,47.363,-19.043,57.129
1678714320.890,-17.578,20.508,58.105,-28.320,35.156
1678714320.894,1.465,14.160,51.758,-6.348,3.906
1678714320.898,22.461,10.254,49.805,20.508,79.590
1678714320.902,17.090,13.184,55.176,24.902,48.828
1678714320.906,-10.742,18.555,59.082,-19.043,12.207
1678714320.910,-21.484,18.555,59.570,-34.668,30.273
1678714320.914,-9.766,14.160,56.641,-6.836,26.855
1678714320.917,15.137,11.230,55.176,17.578,-14.160
1678714320.921,21.484,14.648,56.152,18.555,-24.902
1678714320.925,3.418,20.020,62.988,-13.672,25.391
1678714320.929,-17.578,19.531,64.453,-43.457,23.438
1678714320.933,-1.465,17.090,57.617,-23.926,66.895
1678714320.937,35.645,15.625,53.711,11.230,72.754
1678714320.941,29.785,16.602,50.293,7.324,31.250
1678714320.945,-6.348,21.484,57.129,-22.461,48.828
1678714320.949,-17.090,21.973,62.500,-52.246,86.426
1678714320.953,-3.906,16.602,55.664,-33.691,90.332
1678714320.957,19.531,11.230,51.270,18.555,54.199
1678714320.960,35.156,13.672,55.664,24.902,22.949
1678714320.964,14.160,16.602,60.547,-12.207,10.742
1678714320.968,-18.555,17.090,64.453,-53.223,13.184
1678714320.972,-2.930,16.602,59.082,-42.969,47.363
1678714320.976,24.902,13.672,53.223,1.465,44.434
1678714320.980,27.832,12.695,58.105,17.090,18.555
1678714320.984,10.254,17.090,59.570,-7.812,34.180
1678714320.988,-7.812,21.484,61.035,-38.574,10.742
1678714320.992,-12.695,16.113,60.547,-33.203,15.137
1678714320.996,-0.488,10.254,53.711,11.230,43.457
1678714320.999,32.715,10.742,47.852,43.945,37.109
1678714321.003,14.648,13.672,51.270,13.672,62.012
1678714321.007,-17.578,15.625,59.570,-31.250,54.199
1678714321.011,-11.719,14.648,59.570,-13.184,43.457
1678714321.015,9.277,11.230,53.223,20.508,21.484
1678714321.019,34.668,11.230,52.246,44.434,-21.973
1678714321.023,17.090,14.160,57.129,22.461,55.176
1678714321.027,-11.719,18.555,62.988,-18.555,44.922
1678714321.031,-3.906,17.090,59.570,-15.137,-17.090
1678714321.035,12.695,12.695,52.734,20.996,51.270
1678714321.039,45.410,12.207,49.805,38.086,67.383
1678714321.042,56.152,19.043,53.223,14.648,3.906
1678714321.046,8.301,24.902,59.082,-11.719,64.941
1678714321.050,-3.418,24.902,59.082,-26.855,102.539
1678714321.054,22.949,20.996,53.223,-7.324,74.707
1678714321.058,37.109,16.113,50.293,30.273,57.617
1678714321.062,29.297,20.508,56.152,28.320,13.184
1678714321.066,8.301,28.809,66.406,-16.113,17.578
1678714321.070,0.977,25.391,67.383,-44.922,6.836
1678714321.074,17.090,13.184,54.688,-17.090,20.996
1678714321.078,32.227,10.742,46.387,27.832,27.832
1678714321.082,20.020,15.625,50.781,37.109,-0.977
1678714321.085,-10.254,20.020,63.477,-7.812,22.461
1678714321.089,-22.461,17.578,70.312,-50.293,36.133
1678714321.093,-8.789,11.230,60.059,-33.691,71.777
1678714321.097,-3.418,6.836,51.758,10.254,153.320
1678714321.101,-8.789,7.324,60.547,7.812,98.145
1678714321.105,-28.809,10.254,68.359,-36.133,27.832
1678714321.109,-50.293,9.766,70.801,-58.594,55.664
1678714321.113,-46.387,5.859,65.918,-37.598,41.016
1678714321.117,-18.555,3.418,57.129,9.277,27.344
1678714321.121,-6.836,2.441,54.688,16.113,26.855
1678714321.124,-22.461,8.789,60.547,-31.250,-2.441
1678714321.128,-38.574,14.160,68.848,-43.945,-27.344
1678714321.132,-32.227,9.766,65.430,-32.715,-5.371
1678714321.136,-1.465,4.883,57.617,3.418,45.898
1678714321.140,10.742,9.766,54.688,32.227,65.918
1678714321.144,-9.277,13.184,57.617,-2.930,7.812
1678714321.148,-40.039,12.207,65.430,-46.387,19.043
1678714321.152,-30.762,13.672,63.477,-25.879,26.855
1678714321.156,5.371,12.207,53.711,13.672,54.199
1678714321.160,13.672,13.672,51.270,23.926,59.570
1678714321.164,-5.371,20.020,55.176,-2.441,21.484
1678714321.167,-41.016,20.020,56.152,-39.062,34.180
1678714321.171,-30.762,18.066,51.270,-31.250,41.992
1678714321.175,-1.953,13.184,44.434,-0.488,51.758
1678714321.179,-3.906,5.859,36.621,17.578,72.754
1678714321.183,-16.113,6.836,42.480,-8.789,28.320
1678714321.187,-39.062,11.719,50.293,-56.152,-6.348
1678714321.191,-46.387,10.742,47.363,-45.898,77.148
1678714321.195,-19.043,2.930,39.551,-0.977,6.348
1678714321.199,11.230,0.977,34.180,25.879,-34.668
1678714321.203,0.488,5.859,39.551,-0.977,41.504
1678714321.207,-33.691,13.672,46.875,-46.387,46.875
1678714321.210,-35.156,14.160,46.875,-52.734,-3.906
1678714321.214,-13.184,7.324,40.039,-20.996,-4.395
1678714321.218,-2.930,5.859,39.062,17.578,-30.273
1678714321.222,-13.184,10.742,45.410,6.836,15.137
1678714321.226,-38.086,17.090,50.781,-42.480,78.613
1678714321.230,-32.715,19.043,53.223,-50.293,-5.371
1678714321.234,-16.113,16.602,46.387,-19.531,4.395
1678714321.238,-0.977,13.672,38.574,4.883,29.785
1678714321.242,3.418,16.113,40.039,7.812,33.691
1678714321.246,-28.809,22.461,49.805,-20.020,91.797
1678714321.249,-25.879,24.414,56.152,-36.621,-8.789
1678714321.253,-0.977,17.578,48.828,-9.277,-44.922
1678714321.257,9.766,12.207,41.504,31.738,57.617
1678714321.261,18.066,18.066,46.387,22.461,22.461
1678714321.265,3.906,25.879,50.781,-28.809,25.391
1678714321.269,-23.926,22.461,53.223,-42.480,34.668
1678714321.273,-15.137,15.137,50.293,-13.184,41.016
1678714321.277,7.812,12.207,40.527,23.926,79.590
1678714321.281,7.812,15.137,43.457,40.527,67.871
1678714321.285,0.488,22.461,52.246,8.789,62.500
1678714321.289,-21.973,27.344,57.129,-30.273,31.738
1678714321.292,-10.254,20.996,49.805,-15.137,29.297
1678714321.296,17.578,16.602,41.016,24.902,24.414
1678714321.300,23.438,19.043,39.551,27.832,-7.324
1678714321.304,1.465,24.414,42.480,-13.184,15.137
1678714321.308,-27.344,28.320,44.434,-37.598,81.055
1678714321.312,-20.508,22.949,41.504,-21.973,49.805
1678714321.316,11.719,15.625,34.180,4.883,51.270
1678714321.320,31.250,21.973,35.156,13.672,61.035
1678714321.324,1.953,27.832,42.969,-0.488,14.648
1678714321.328,-28.320,25.391,44.922,-23.438,93.750
1678714321.331,-9.766,24.414,41.992,-22.949,88.379
1678714321.335,21.484,16.602,41.016,14.160,27.344
1678714321.339,16.602,11.230,44.922,30.762,46.875
1678714321.343,-4.883,16.113,49.316,1.953,47.852
1678714321.347,-22.949,26.367,52.246,-32.227,44.922
1678714321.351,-2.441,26.367,54.688,-12.207,30.762
1678714321.355,19.043,15.625,55.664,32.227,13.184
1678714321.359,19.043,9.766,52.246,36.621,64.941
1678714321.363,11.719,10.742,55.664,16.602,58.594
1678714321.367,-14.648,14.648,64.453,-17.578,58.105
1678714321.371,-19.531,11.719,63.477,-22.949,110.840
1678714321.374,17.578,6.348,55.664,12.695,57.129
1678714321.378,45.898,5.859,49.805,43.945,47.852
1678714321.382,27.344,8.301,52.734,31.738,83.984
1678714321.386,-8.301,13.672,57.129,-18.555,41.016
1678714321.390,-24.414,14.648,57.617,-19.043,25.879
1678714321.394,7.812,10.742,50.293,20.020,44.922
1678714321.398,34.668,9.277,45.410,47.852,-10.742
1678714321.402,15.137,9.766,45.410,21.484,-2.930
1678714321.406,-10.742,10.742,49.805,-30.273,73.242
1678714321.410,-15.625,13.672,56.641,-32.227,22.949
1678714321.414,-0.977,12.695,43.945,-5.859,-48.340
1678714321.417,32.715,7.324,35.156,22.461,8.301
1678714321.421,27.344,7.812,43.457,16.602,33.203
1678714321.425,-20.996,13.672,51.758,-15.137,-20.020
1678714321.429,-24.414,16.602,53.711,-29.297,-21.484
1678714321.433,-2.441,9.766,45.898,-19.043,-19.043
1678714321.437,11.719,4.395,44.434,18.066,4.395
1678714321.441,16.113,12.207,49.805,32.715,39.551
1678714321.445,-3.418,20.020,51.270,-9.277,76.172
1678714321.449,-22.949,20.020,48.340,-35.645,83.008
1678714321.453,-8.789,17.578,43.945,-14.648,62.500
1678714321.456,23.926,18.066,43.457,21.973,34.180
1678714321.460,25.391,19.531,43.945,29.297,44.922
1678714321.464,1.953,22.461,44.922,-1.953,41.016
1678714321.468,-20.996,26.367,48.340,-38.086,34.180
1678714321.472,-13.184,24.902,43.945,-21.973,34.180
1678714321.476,13.672,17.090,37.109,19.043,11.230
1678714321.480,26.367,16.602,38.574,27.344,48.828
1678714321.484,10.254,27.344,41.992,0.488,49.316
1678714321.488,-20.996,28.320,47.363,-23.926,53.223
1678714321.492,-20.020,24.902,41.504,-20.508,56.152
1678714321.496,9.277,18.555,27.832,10.254,17.090
1678714321.499,14.648,13.672,24.414,26.855,79.590
1678714321.503,4.395,22.949,36.621,5.371,47.852
1678714321.507,-10.742,28.320,41.016,-27.832,7.324
1678714321.511,-14.648,26.855,30.762,-23.926,29.785
1678714321.515,15.137,24.902,24.414,19.531,16.602
1678714321.519,29.297,22.949,25.879,34.668,38.086
1678714321.523,18.555,31.250,32.227,9.766,28.320
1678714321.527,-6.348,32.227,38.086,-24.414,46.875
1678714321.531,-11.230,24.414,34.180,-31.250,53.223
1678714321.535,16.113,22.461,25.391,7.812,44.922
1678714321.539,24.902,21.973,16.602,21.484,43.945
1678714321.542,7.324,22.461,17.090,-9.277,65.918
1678714321.546,-8.301,29.297,23.926,-28.320,36.133
1678714321.550,-8.301,30.273,26.855,-32.715,10.254
1678714321.554,11.230,23.926,24.902,-9.766,9.766
1678714321.558,31.738,19.531,20.020,29.297,-19.043
1678714321.562,19.531,20.508,19.043,14.160,5.371
1678714321.566,-2.441,24.902,26.367,-29.297,5.371
1678714321.570,-12.695,23.926,32.715,-42.969,30.273
1678714321.574,2.441,19.531,27.344,-15.137,30.273
1678714321.578,29.297,18.066,20.508,23.926,43.457
1678714321.581,23.438,19.531,26.367,20.996,31.738
1678714321.585,-6.836,24.902,32.227,-23.926,-9.277
1678714321.589,-19.043,23.926,35.156,-40.039,-5.371
1678714321.593,-4.395,16.113,31.250,-20.508,25.391
1678714321.597,19.531,13.672,21.484,8.301,-9.766
1678714321.601,16.113,18.555,20.508,15.625,-22.461
1678714321.605,-12.207,21.973,27.344,-16.113,46.387
1678714321.609,-18.066,23.926,32.227,-41.016,62.988
1678714321.613,-7.812,20.508,25.391,-22.461,55.176
1678714321.617,11.230,15.137,17.090,16.113,47.852
1678714321.621,19.043,18.555,19.043,21.484,13.672
1678714321.624,7.324,26.855,23.438,-10.742,-3.418
1678714321.628,-20.996,29.297,24.902,-36.133,4.395
1678714321.632,-15.137,23.438,22.949,-26.367,54.199
1678714321.636,15.137,22.949,18.555,15.625,78.613
1678714321.640,25.879,23.926,20.508,31.738,49.316
1678714321.644,-2.441,25.391,23.926,-4.883,31.738
1678714321.648,-27.344,32.227,31.250,-32.715,51.758
1678714321.652,-15.625,29.297,32.715,-24.414,27.344
1678714321.656,13.184,22.949,22.949,10.254,45.898
1678714321.660,34.180,22.949,19.043,32.227,70.801
1678714321.663,10.742,26.367,29.785,0.488,61.523
1678714321.667,-8.789,29.297,37.598,-33.691,-1.465
1678714321.671,0.000,28.320,33.691,-27.832,-37.598
1678714321.675,29.297,25.879,30.273,8.789,-1.953
1678714321.679,41.016,22.949,28.320,27.832,8.789
1678714321.683,20.020,30.273,34.180,3.418,24.902
1678714321.687,-7.324,35.156,40.527,-30.273,-11.719
1678714321.691,-8.789,28.809,37.598,-31.738,-3.418
1678714321.695,20.508,23.926,34.180,3.418,78.613
1678714321.699,32.227,21.484,28.809,35.645,28.320
1678714321.703,14.160,21.973,28.809,13.184,-0.488
1678714321.706,-20.508,25.879,32.715,-26.367,33.203
1678714321.710,-12.695,26.367,37.598,-30.762,14.160
1678714321.714,16.602,21.973,36.621,-1.953,32.715
1678714321.718,26.367,18.066,29.785,33.691,33.203
1678714321.722,16.602,20.996,35.156,32.715,3.418
1678714321.726,-2.441,27.832,45.410,-5.371,-15.625
1678714321.730,-7.812,25.879,42.480,-33.691,66.895
1678714321.734,2.930,18.555,28.809,-6.836,75.195
1678714321.738,24.902,15.625,22.949,26.855,14.648
1678714321.742,29.785,19.043,24.414,21.973,31.738
1678714321.746,4.883,26.367,26.855,-14.648,3.418
1678714321.749,-8.789,25.391,27.832,-36.621,-46.387
1678714321.753,1.465,14.160,26.855,-9.766,39.062
1678714321.757,30.762,8.789,25.879,25.879,47.852
1678714321.761,36.133,12.695,28.809,20.996,6.836
1678714321.765,3.418,18.555,37.109,-11.719,59.082
1678714321.769,-3.906,21.484,39.551,-25.879,-8.301
1678714321.773,15.625,21.484,34.668,-9.277,-30.762
1678714321.777,15.137,15.137,27.344,23.926,58.594
1678714321.781,17.578,13.672,22.461,22.461,58.594
1678714321.785,10.254,20.020,27.344,-28.320,28.320
1678714321.788,-17.578,21.973,35.156,-43.945,35.645
1678714321.792,-7.812,16.113,35.645,-14.648,39.551
1678714321.796,18.555,10.742,28.809,11.719,29.297
1678714321.800,23.438,14.648,26.367,15.625,84.473
1678714321.804,3.418,21.973,29.785,-24.414,82.031
1678714321.808,-16.602,23.926,32.715,-48.828,2.441
1678714321.812,-7.812,18.555,30.762,-28.320,-15.625
1678714321.816,20.996,16.113,25.391,12.695,4.883
1678714321.820,28.809,18.555,24.414,30.762,-4.395
1678714321.824,5.859,20.508,26.367,-9.766,-19.043
1678714321.828,-17.090,22.461,26.367,-41.016,7.324
1678714321.831,-11.230,20.020,27.344,-24.902,41.016
1678714321.835,8.301,13.672,25.879,14.648,86.426
1678714321.839,23.438,11.230,24.414,35.645,37.109
1678714321.843,5.371,14.648,29.785,7.324,16.602
1678714321.847,-16.113,21.484,37.109,-32.227,56.152
1678714321.851,-5.859,21.973,37.598,-30.273,87.402
1678714321.855,13.184,11.719,29.785,2.441,88.867
1678714321.859,20.508,7.324,24.902,25.391,38.086
1678714321.863,8.789,12.695,32.227,9.766,27.832
1678714321.867,0.488,18.555,41.016,-29.297,47.852
1678714321.871,-2.930,15.625,33.203,-30.762,43.457
1678714321.874,0.977,8.789,29.297,10.742,55.664
1678714321.878,25.879,8.301,34.180,24.902,49.805
1678714321.882,15.137,9.766,30.273,7.812,36.133
1678714321.886,-22.949,10.742,29.297,-28.320,89.844
1678714321.890,-19.043,10.742,29.785,-43.457,108.887
1678714321.894,4.395,8.301,22.949,-10.254,66.895
1678714321.898,11.719,6.836,15.137,24.902,22.949
1678714321.902,-2.441,8.789,17.578,11.719,3.906
1678714321.906,-20.508,13.672,24.902,-30.762,-24.902
1678714321.910,-18.066,14.648,24.902,-40.039,-3.906
1678714321.913,-6.836,8.789,16.602,-10.742,44.434
1678714321.917,12.207,4.883,8.789,24.902,78.613
1678714321.921,21.484,10.254,14.648,8.789,58.594
1678714321.925,-3.906,15.625,29.297,-24.902,24.902
1678714321.929,-26.367,13.672,29.297,-35.156,48.828
1678714321.933,-5.859,10.254,22.949,-20.996,47.852
1678714321.937,25.391,12.207,18.555,13.672,23.926
1678714321.941,17.578,13.672,22.461,28.809,27.344
1678714321.945,-2.930,16.602,27.832,-5.859,73.242
1678714321.949,-12.207,16.602,27.832,-42.480,64.453
1678714321.953,8.789,11.230,21.484,-19.043,29.785
1678714321.956,32.227,10.742,13.184,30.273,47.363
1678714321.960,10.742,10.254,14.160,38.086,57.129
1678714321.964,-8.789,9.277,20.508,-7.324,33.691
1678714321.968,-10.254,15.137,24.902,-40.039,31.250
1678714321.972,-3.906,13.184,20.508,-18.555,85.449
1678714321.976,12.207,4.395,13.184,16.113,11.719
1678714321.980,22.461,3.906,13.184,26.367,-19.531
1678714321.984,6.836,13.184,20.020,-5.371,62.988
1678714321.988,-17.578,18.555,25.391,-25.879,62.988
1678714321.992,-15.625,13.184,25.391,-15.137,53.223
1678714321.995,21.973,5.859,22.461,17.578,39.062
1678714321.999,23.438,10.254,18.066,32.715,-7.324
1678714322.003,-3.906,18.066,16.602,-3.906,-35.156
1678714322.007,-13.184,23.438,11.719,-40.039,-16.113
1678714322.011,2.441,23.438,10.254,-22.949,71.289
1678714322.015,30.273,20.996,6.836,22.949,41.504
1678714322.019,38.086,22.461,-2.441,44.922,-0.977
1678714322.023,30.273,25.879,0.977,24.414,17.578
1678714322.027,20.508,26.855,8.789,-5.371,55.664
1678714322.031,16.113,27.344,12.207,6.836,63.477
1678714322.035,22.949,19.531,7.324,24.902,27.344
1678714322.038,42.480,16.113,4.395,38.086,-7.324
1678714322.042,33.691,23.438,6.836,23.438,24.414
1678714322.046,3.418,23.926,12.695,-8.301,108.398
1678714322.050,0.977,20.996,20.508,-14.160,36.133
1678714322.054,23.438,16.113,17.090,9.766,-4.395
1678714322.058,41.992,11.719,15.625,37.598,44.922
1678714322.062,29.785,13.184,22.949,28.320,62.012
1678714322.066,-4.395,15.625,27.832,-0.488,17.090
1678714322.070,2.441,15.625,30.762,-23.926,12.207
1678714322.074,28.320,12.695,23.926,-6.348,10.254
1678714322.078,36.133,9.766,18.066,19.531,23.438
1678714322.081,20.508,10.254,25.391,10.742,79.102
1678714322.085,-11.719,19.043,33.691,-18.066,100.586
1678714322.089,-13.672,21.484,34.668,-34.668,20.508
1678714322.093,9.277,13.672,25.391,-11.719,-53.223
1678714322.097,33.203,8.789,21.484,16.113,-7.812
1678714322.101,23.926,12.695,28.320,20.996,50.293
1678714322.105,-1.953,19.531,33.691,-4.883,32.227
1678714322.109,-15.137,19.043,30.273,-41.016,24.902
1678714322.113,0.000,12.695,22.949,-18.066,43.945
1678714322.117,19.043,6.348,18.555,22.461,11.719
1678714322.120,18.066,7.324,20.020,27.344,-8.789
1678714322.124,3.906,11.230,25.391,-18.066,7.324
1678714322.128,-22.461,13.672,30.762,-51.270,75.684
1678714322.132,-26.855,12.695,27.344,-29.785,61.035
1678714322.136,8.301,8.301,20.508,7.812,4.395
1678714322.140,32.227,9.277,21.484,18.555,-33.691
1678714322.144,1.953,18.066,25.879,-7.812,-9.766
1678714322.148,-31.738,23.438,35.156,-37.109,16.602
1678714322.152,-20.508,18.555,28.809,-31.738,10.254
1678714322.156,1.465,13.672,12.695,-2.441,54.688
1678714322.160,10.254,17.090,21.484,18.555,38.086
1678714322.163,-4.883,24.414,32.227,-4.883,64.453
1678714322.167,-26.367,27.832,32.715,-44.434,99.609
1678714322.171,-16.113,23.438,32.715,-32.227,4.395
1678714322.175,6.836,16.113,26.855,4.395,13.672
1678714322.179,10.742,11.719,23.926,9.766,66.895
1678714322.183,-9.277,16.602,29.297,-19.531,42.480
1678714322.187,-29.785,21.484,35.645,-51.758,40.527
1678714322.191,-15.625,22.461,40.039,-41.016,103.516
1678714322.195,9.766,16.602,35.645,3.418,97.656
1678714322.199,11.719,10.742,28.809,27.344,8.301
1678714322.203,-5.371,15.625,33.203,5.371,12.207
1678714322.206,-20.508,18.555,38.086,-36.621,130.859
1678714322.210,-18.555,20.020,37.109,-40.527,98.633
1678714322.214,1.953,19.531,28.809,-4.883,35.156
1678714322.218,22.949,17.090,25.391,25.879,23.438
1678714322.222,21.484,21.484,28.809,18.555,10.254
1678714322.226,3.418,25.879,34.180,-9.277,28.320
1678714322.230,-10.254,24.414,37.109,-11.230,56.152
1678714322.234,10.254,21.973,28.809,4.883,53.711
1678714322.238,34.668,20.508,26.855,31.738,-5.371
1678714322.242,24.902,25.391,32.715,31.738,1.465
1678714322.245,-0.488,30.273,34.180,-23.926,43.945
1678714322.249,-6.836,26.855,36.133,-42.480,43.945
1678714322.253,9.277,24.414,32.715,-5.371,42.480
1678714322.257,32.227,21.484,26.367,27.832,54.688
1678714322.261,28.320,20.996,28.809,26.367,24.902
1678714322.265,12.695,28.320,36.621,-9.766,-18.555
1678714322.269,-1.465,27.832,31.250,-35.156,16.602
1678714322.273,6.348,20.996,20.020,-1.465,23.926
1678714322.277,37.109,17.578,22.949,35.645,3.418
1678714322.281,32.715,21.973,30.273,30.273,57.129
1678714322.285,6.836,26.855,39.062,-4.883,80.566
1678714322.288,-17.578,25.879,41.504,-21.973,45.410
1678714322.292,0.488,23.438,32.715,-12.207,11.719
1678714322.296,42.969,21.973,30.273,13.184,41.992
1678714322.300,25.879,22.461,31.738,16.602,85.449
1678714322.304,5.371,24.414,30.762,-16.113,28.320
1678714322.308,-4.395,27.344,35.156,-35.645,-16.113
1678714322.312,6.348,24.902,33.691,-13.672,-14.160
1678714322.316,30.273,20.508,27.344,20.996,-15.625
1678714322.320,23.438,22.461,24.414,22.949,18.066
1678714322.324,8.789,29.785,30.273,-13.672,0.000
1678714322.327,-6.836,34.180,36.621,-35.645,1.953
1678714322.331,-1.465,32.715,38.086,-14.648,6.348
1678714322.335,18.066,27.832,31.738,23.926,13.672
1678714322.339,22.949,27.832,25.879,39.551,50.293
1678714322.343,19.043,31.738,34.668,-0.977,44.922
1678714322.347,-0.977,35.645,42.969,-43.457,57.129
1678714322.351,-6.836,33.203,39.551,-23.926,30.762
1678714322.355,19.531,27.832,32.715,5.859,41.504
1678714322.359,35.156,26.367,32.227,12.695,101.074
1678714322.363,17.090,28.809,35.156,-1.465,56.152
1678714322.367,-15.625,29.785,39.062,-41.504,17.090
1678714322.370,-19.043,26.855,36.133,-36.621,-4.395
1678714322.374,16.113,25.391,28.809,6.348,-16.602
1678714322.378,28.809,23.438,30.273,25.391,0.977
1678714322.382,10.254,23.926,33.203,7.324,5.859
1678714322.386,-14.160,27.832,32.227,-25.391,-14.160
1678714322.390,-24.902,24.414,33.691,-38.574,16.113
1678714322.394,-5.859,17.090,25.879,-17.090,-0.488
1678714322.398,7.812,16.602,20.508,11.719,28.320
1678714322.402,-3.418,19.531,27.832,8.301,100.586
1678714322.406,-23.926,25.391,38.574,-23.926,15.625
1678714322.410,-20.020,26.367,36.133,-51.270,33.203
1678714322.413,1.465,21.484,24.414,-18.555,75.684
1678714322.417,14.160,15.625,27.344,16.113,27.832
1678714322.421,6.836,16.602,32.227,3.418,78.125
1678714322.425,-7.812,22.949,35.645,-26.367,113.281
1678714322.429,-27.832,23.438,37.598,-47.852,22.949
1678714322.433,-5.371,18.555,32.715,-20.996,37.598
1678714322.437,9.766,14.160,27.832,15.625,124.512
1678714322.441,-5.371,15.625,28.320,10.254,35.156
1678714322.445,-8.789,21.484,38.086,-20.996,-27.832
1678714322.449,-18.555,24.414,42.969,-41.016,49.805
1678714322.452,-9.766,20.020,34.668,-19.531,56.152
1678714322.456,14.160,10.742,31.738,21.973,6.836
1678714322.460,20.020,10.742,36.621,28.809,46.875
1678714322.464,-2.441,18.555,35.645,-2.441,72.266
1678714322.468,-15.625,20.996,33.203,-39.551,30.273
1678714322.472,7.324,19.531,28.320,-15.137,16.602
1678714322.476,45.410,18.066,20.508,41.992,88.867
1678714322.480,74.219,20.508,22.949,62.500,109.863
1678714322.484,57.129,25.391,24.902,40.039,57.129
1678714322.488,31.250,30.762,20.508,4.883,43.945
1678714322.492,43.457,33.691,13.672,20.996,11.230
1678714322.495,82.031,31.738,6.836,76.172,-9.766
1678714322.499,99.609,30.762,4.883,97.656,4.395
1678714322.503,94.238,36.621,10.254,69.824,14.160
1678714322.507,75.195,40.039,12.695,44.434,32.227
1678714322.511,72.266,33.691,6.348,49.805,8.301
1678714322.515,102.539,26.855,0.488,88.379,-0.488
1678714322.519,134.766,30.762,1.953,115.234,12.695
1678714322.523,135.742,37.109,6.348,89.355,41.992
1678714322.527,90.332,41.016,10.742,58.105,72.754
1678714322.531,79.590,41.504,11.719,61.523,-16.113
1678714322.535,115.723,35.645,6.348,87.402,-38.086
1678714322.538,137.207,30.762,2.441,117.676,37.109
1678714322.542,122.070,35.645,2.441,107.422,89.844
1678714322.546,95.703,38.086,8.301,63.965,64.941
1678714322.550,90.820,36.621,11.230,49.316,44.922
1678714322.554,100.098,32.227,6.836,96.680,93.750
1678714322.558,104.004,27.832,8.301,126.465,93.262
1678714322.562,87.891,29.785,20.020,79.590,41.504
1678714322.566,62.012,34.180,26.367,28.809,22.949
1678714322.570,58.105,35.645,20.996,28.320,35.645
1678714322.574,66.895,28.320,12.207,60.059,0.488
1678714322.577,79.102,23.438,8.301,83.496,3.418
1678714322.581,78.125,25.391,14.648,80.566,62.988
1678714322.585,52.734,28.320,21.973,25.391,69.824
1678714322.589,26.367,27.832,18.555,-6.836,79.590
1678714322.593,56.152,24.902,11.230,34.180,85.938
1678714322.597,78.125,20.020,6.836,70.801,91.797
1678714322.601,53.711,22.461,10.254,57.129,50.781
1678714322.605,32.227,27.832,19.043,17.578,-3.418
1678714322.609,21.973,27.832,25.391,-11.230,13.184
1678714322.613,41.016,25.879,23.438,10.742,13.184
1678714322.617,74.707,21.973,15.137,48.828,-4.883
1678714322.620,62.988,23.438,13.672,42.480,57.617
1678714322.624,16.602,28.320,18.066,-0.488,86.914
1678714322.628,1.465,27.344,29.785,-23.926,35.645
1678714322.632,9.766,22.461,29.297,-7.812,10.742
1678714322.636,31.738,19.043,20.020,33.691,10.254
1678714322.640,40.039,18.066,25.391,48.340,62.500
1678714322.644,24.414,22.461,28.809,8.789,33.203
1678714322.648,0.488,28.809,24.414,-28.320,10.742
1678714322.652,-1.465,26.855,20.996,-24.414,-17.090
1678714322.656,48.828,25.391,10.254,28.320,22.461
1678714322.659,62.988,26.367,9.277,52.734,61.523
1678714322.663,32.715,28.809,14.160,13.184,62.988
1678714322.667,24.902,31.250,16.113,-14.160,64.941
1678714322.671,40.527,29.297,21.973,5.371,5.371
1678714322.675,46.387,22.461,20.996,47.852,42.480
1678714322.679,39.551,19.043,17.578,48.828,72.266
1678714322.683,25.391,23.926,26.855,8.789,71.289
1678714322.687,-3.418,27.344,34.668,-9.277,48.828
1678714322.691,-1.953,24.902,30.762,-13.184,3.418
1678714322.695,20.996,17.090,24.902,19.531,49.805
1678714322.699,34.668,15.625,26.367,56.641,62.500
1678714322.702,12.695,20.020,33.203,28.809,-12.207
1678714322.706,-15.625,23.926,38.574,-17.578,-63.477
1678714322.710,-13.184,21.484,37.598,-28.809,45.410
1678714322.714,8.301,13.672,32.227,9.766,104.492
1678714322.718,33.203,12.695,31.738,40.039,73.242
1678714322.722,17.090,17.090,37.109,20.508,64.941
1678714322.726,-20.996,19.531,43.945,-12.207,59.082
1678714322.730,-35.156,17.578,44.922,-25.879,54.199
1678714322.734,0.488,13.672,33.691,3.906,61.035
1678714322.738,20.508,11.230,33.203,41.992,53.711
1678714322.742,12.695,10.742,39.551,20.508,33.691
1678714322.745,-6.348,16.602,42.480,-29.297,44.434
1678714322.749,-10.254,21.973,42.480,-42.969,20.508
1678714322.753,12.207,16.113,38.086,-10.742,40.527
1678714322.757,15.625,13.184,32.227,37.109,64.453
1678714322.761,21.973,20.020,37.109,23.438,52.246
1678714322.765,3.418,26.367,46.387,-37.598,51.270
1678714322.769,-33.691,25.879,41.504,-54.688,62.012
1678714322.773,-19.043,20.996,34.180,-26.855,63.965
1678714322.777,15.625,19.531,27.832,12.207,11.230
1678714322.781,17.090,19.531,31.738,28.809,-3.418
1678714322.784,-15.137,21.484,37.109,-21.973,-3.906
1678714322.788,-34.668,23.926,33.203,-57.129,-11.230
1678714322.792,-12.207,21.484,27.832,-29.785,15.625
1678714322.796,19.531,16.113,24.902,17.090,43.945
1678714322.800,15.625,15.137,26.855,29.297,-25.879
1678714322.804,-5.859,20.020,28.809,-24.414,3.418
1678714322.808,-28.320,25.391,35.156,-59.082,40.527
1678714322.812,-20.996,21.973,31.738,-33.203,1.465
1678714322.816,11.719,17.578,23.438,10.254,2.930
1678714322.820,14.648,19.043,25.879,23.926,27.832
1678714322.824,-5.859,21.973,34.180,-4.883,52.734
1678714322.827,-15.137,23.926,35.645,-45.410,23.438
1678714322.831,-5.859,22.461,33.203,-20.508,20.020
1678714322.835,11.719,20.996,27.832,30.273,10.254
1678714322.839,20.020,18.066,26.855,24.414,19.043
1678714322.843,5.859,20.020,34.180,-1.465,58.594
1678714322.847,-26.855,24.902,38.574,-29.785,59.082
1678714322.851,-25.391,25.391,39.551,-36.133,14.648
1678714322.855,11.230,22.949,38.086,-1.953,-44.434
1678714322.859,23.926,21.973,32.715,12.207,19.531
1678714322.863,2.930,26.367,36.621,-6.348,58.594
1678714322.867,-28.809,27.344,45.898,-45.410,-26.367
1678714322.870,-12.695,26.855,44.434,-47.852,-14.648
1678714322.874,18.066,22.949,37.598,2.930,-19.531
1678714322.878,12.207,20.020,33.691,38.574,13.184
1678714322.882,2.930,22.949,37.109,9.277,113.281
1678714322.886,-11.719,30.273,38.086,-36.133,13.672
1678714322.890,-17.090,31.738,28.809,-40.039,0.000
1678714322.894,7.812,25.879,24.902,-13.184,63.965
1678714322.898,13.672,23.926,23.926,6.348,1.465
1678714322.902,-13.672,25.879,22.461,-9.766,24.902
1678714322.906,-30.273,27.344,23.926,-56.152,51.758
1678714322.909,-41.016,26.855,25.879,-61.523,12.695
1678714322.913,-32.715,22.461,25.879,-22.949,-4.883
1678714322.917,3.418,20.020,20.996,7.812,30.273
1678714322.921,9.277,26.855,27.344,0.977,40.039
1678714322.925,-17.090,31.250,38.086,-31.738,-15.625
1678714322.929,-20.996,28.320,37.109,-50.781,34.180
1678714322.933,10.254,24.414,27.832,-21.484,73.242
1678714322.937,27.832,23.438,21.973,18.066,79.590
1678714322.941,17.578,25.879,28.320,12.695,59.570
1678714322.945,1.953,29.297,37.109,-28.809,24.414
1678714322.949,-24.414,26.855,35.156,-55.176,15.137
1678714322.952,-15.625,20.020,31.250,-21.973,9.277
1678714322.956,16.113,14.160,25.391,22.949,89.355
1678714322.960,11.719,15.137,22.461,21.973,39.551
1678714322.964,-13.184,21.973,26.855,-21.484,5.859
1678714322.968,-20.020,24.414,32.715,-50.781,17.578
1678714322.972,2.441,19.531,26.855,-26.855,23.438
1678714322.976,22.949,12.695,16.113,21.973,111.328
1678714322.980,20.020,12.695,18.066,13.672,93.262
1678714322.984,-6.836,18.066,23.926,-25.879,76.660
1678714322.988,-23.438,19.531,25.391,-49.316,138.672
1678714322.991,-20.996,17.090,20.020,-40.527,116.211
1678714322.995,6.836,14.648,13.184,11.230,42.480
1678714322.999,22.949,13.184,15.137,31.738,26.855
1678714323.003,-7.324,20.020,23.926,-9.277,71.289
1678714323.007,-23.438,21.484,28.320,-45.898,10.742
1678714323.011,-10.742,16.113,24.414,-29.297,-4.883
1678714323.015,3.418,12.207,20.020,5.859,103.027
1678714323.019,26.367,9.277,20.020,24.902,73.242
1678714323.023,10.254,13.184,22.949,7.324,16.602
1678714323.027,-26.855,20.020,30.273,-36.621,27.832
1678714323.031,-23.438,20.020,25.391,-43.945,37.598
1678714323.034,10.742,14.160,18.066,-1.465,64.453
1678714323.038,25.391,10.254,21.484,18.066,38.574
1678714323.042,1.465,11.719,21.973,-11.230,30.762
1678714323.046,-23.438,15.137,25.391,-46.387,37.109
1678714323.050,-29.297,13.672,25.879,-51.758,2.930
1678714323.054,-11.719,6.836,18.066,-27.832,-26.855
1678714323.058,13.184,6.836,17.578,0.000,-17.090
1678714323.062,-1.953,12.207,22.461,-17.578,-23.926
1678714323.066,-41.504,16.602,23.438,-63.477,36.621
1678714323.070,-20.996,18.555,18.066,-49.805,19.043
1678714323.074,10.254,12.207,15.625,-10.742,-43.945
1678714323.077,-1.465,8.789,17.578,-8.789,34.180
1678714323.081,-35.156,16.602,21.484,-37.598,26.855
1678714323.085,-79.590,16.602,29.785,-93.262,-0.977
1678714323.089,-101.562,12.207,37.109,-128.906,42.969
1678714323.093,-83.496,17.090,35.645,-110.352,2.930
1678714323.097,-85.449,18.555,33.691,-82.031,17.578
1678714323.101,-119.141,13.184,39.551,-99.121,61.035
1678714323.105,-148.438,19.043,47.363,-158.203,37.109
1678714323.109,-171.875,26.367,56.641,-194.336,46.387
1678714323.113,-173.828,21.973,53.223,-176.758,77.148
1678714323.116,-169.434,14.160,45.410,-166.016,40.527
1678714323.120,-170.410,19.531,55.664,-181.641,38.086
1678714323.124,-210.938,23.926,66.895,-217.285,83.984
1678714323.128,-235.840,23.438,66.895,-251.465,59.570
1678714323.132,-213.867,20.020,64.941,-235.352,34.180
1678714323.136,-221.680,13.184,63.965,-207.520,41.016
1678714323.140,-229.004,11.719,62.500,-207.031,53.711
1678714323.144,-230.957,8.789,62.988,-225.098,48.828
1678714323.148,-238.770,4.883,62.500,-244.629,-15.625
1678714323.152,-217.773,-0.488,63.965,-228.027,-22.949
1678714323.156,-172.363,-9.277,57.617,-171.875,13.672
1678714323.159,-162.109,-16.602,52.246,-137.207,41.016
1678714323.163,-176.270,-15.625,63.965,-158.691,1.465
1678714323.167,-181.641,-16.113,62.988,-182.617,-30.273
1678714323.171,-160.645,-22.461,51.758,-157.227,5.859
1678714323.175,-120.605,-26.367,45.410,-107.910,31.250
1678714323.179,-88.867,-26.367,45.410,-76.172,78.125
1678714323.183,-90.332,-20.996,54.199,-94.238,65.430
1678714323.187,-117.676,-20.020,52.246,-113.281,51.270
1678714323.191,-101.562,-22.461,42.480,-91.309,57.129
1678714323.195,-51.758,-20.996,38.574,-54.688,33.691
1678714323.199,-34.180,-21.484,35.645,-27.832,50.781
1678714323.202,-47.363,-15.137,41.016,-43.457,28.320
1678714323.206,-61.523,-7.812,47.852,-76.172,33.203
1678714323.210,-52.734,-6.836,44.434,-63.477,27.832
1678714323.214,-20.996,-7.812,39.551,-6.348,-51.758
1678714323.218,-15.137,-9.277,41.504,1.953,-0.977
1678714323.222,-31.250,-3.906,42.969,-31.738,74.707
1678714323.226,-38.086,1.465,44.434,-61.035,83.008
1678714323.230,-41.992,2.930,45.410,-57.129,115.234
1678714323.234,-26.367,-1.953,40.039,-15.625,55.176
1678714323.238,4.395,-6.348,41.504,13.184,0.977
1678714323.241,1.465,5.371,47.852,3.418,40.039
1678714323.245,-22.949,14.648,48.828,-32.227,25.879
1678714323.249,-11.719,11.719,43.945,-49.316,25.879
1678714323.253,8.789,4.883,36.621,-18.555,53.223
1678714323.257,16.602,-0.488,37.598,19.531,-7.812
1678714323.261,3.906,-0.488,41.504,9.277,6.348
1678714323.265,-15.137,6.348,49.316,-22.461,62.500
1678714323.269,-11.230,10.742,52.246,-21.973,41.992
1678714323.273,7.812,9.277,50.293,-2.930,94.238
1678714323.277,32.227,5.859,50.781,27.344,65.918
1678714323.281,25.879,7.324,47.363,36.621,20.508
1678714323.284,-15.625,14.160,50.781,-13.672,71.289
1678714323.288,-19.531,8.789,50.781,-50.781,84.473
1678714323.292,3.906,0.488,44.922,-21.484,47.363
1678714323.296,22.949,3.418,41.016,26.855,13.184
1678714323.300,37.109,7.812,37.109,30.762,30.273
1678714323.304,8.789,7.812,38.086,-6.348,42.480
1678714323.308,-16.113,6.836,37.598,-38.574,64.453
1678714323.312,5.371,6.348,33.203,-30.762,96.191
1678714323.316,22.461,3.906,32.715,12.695,44.922
1678714323.320,12.695,2.441,33.203,20.020,-5.371
1678714323.323,-3.418,3.418,35.645,-11.719,18.066
1678714323.327,-17.090,6.836,40.527,-38.086,5.371
1678714323.331,-23.438,6.836,41.992,-20.996,-28.320
1678714323.335,2.930,4.395,35.645,24.414,8.301
1678714323.339,20.508,4.883,31.250,31.250,61.035
1678714323.343,6.348,10.254,34.180,4.883,57.617
1678714323.347,-20.508,13.184,47.852,-33.691,44.434
1678714323.351,-22.949,10.742,45.410,-33.203,64.453
1678714323.355,6.836,8.789,29.297,8.789,85.938
1678714323.359,26.367,13.184,27.832,25.879,71.289
1678714323.363,5.859,15.625,37.598,-6.348,-6.348
1678714323.366,-22.949,10.742,37.109,-45.410,6.836
1678714323.370,-12.207,11.719,38.574,-35.645,51.270
1678714323.374,16.602,16.113,36.621,5.371,26.367
1678714323.378,41.016,13.672,26.367,26.855,6.348
1678714323.382,17.578,12.207,22.949,1.465,3.418
1678714323.386,-6.348,15.137,28.809,-39.551,3.906
1678714323.390,10.742,15.137,34.180,-30.273,-38.086
1678714323.394,12.207,8.789,30.273,15.625,-12.207
1678714323.398,19.043,6.348,23.438,25.391,62.012
1678714323.402,6.836,10.742,24.414,11.719,78.125
1678714323.406,-9.277,21.973,39.062,-13.672,67.383
1678714323.409,-5.371,20.996,47.363,-25.879,25.879
1678714323.413,12.695,12.695,34.180,4.883,44.922
1678714323.417,17.090,11.230,20.020,21.973,93.750
1678714323.421,12.207,16.113,24.414,11.230,33.203
1678714323.425,4.883,20.508,33.691,-15.137,-30.762
1678714323.429,-16.113,17.578,35.156,-30.762,-28.809
1678714323.433,14.160,16.602,31.738,-9.766,-6.348
1678714323.437,34.668,12.695,26.367,13.672,32.227
1678714323.441,7.812,10.742,26.367,8.301,60.547
1678714323.445,-10.254,20.508,32.715,-16.113,59.082
1678714323.448,-21.484,22.949,37.109,-42.969,46.875
1678714323.452,-2.441,18.066,31.250,-15.137,77.148
1678714323.456,26.367,15.137,27.344,25.391,67.383
1678714323.460,15.137,16.602,33.203,4.883,42.969
1678714323.464,-7.812,21.484,42.480,-30.762,24.902
1678714323.468,-15.137,22.949,43.457,-49.316,19.043
1678714323.472,-18.555,16.113,36.621,-26.855,30.762
1678714323.476,5.859,10.254,29.785,12.207,53.223
1678714323.480,23.438,13.672,29.297,25.879,79.102
1678714323.484,-3.906,15.625,36.133,-15.137,60.059
1678714323.488,-24.902,13.184,39.062,-42.969,55.176
1678714323.491,-4.883,12.207,37.598,-17.090,44.922
1678714323.495,19.043,13.184,35.645,11.230,-8.789
1678714323.499,16.113,9.277,32.715,24.414,55.664
1678714323.503,-7.324,12.207,35.645,-9.277,73.730
1678714323.507,-20.508,16.113,42.480,-42.480,78.125
1678714323.511,-10.254,13.184,45.410,-23.926,118.164
1678714323.515,0.977,3.906,40.039,21.973,75.195
1678714323.519,16.113,4.395,35.156,33.203,45.898
1678714323.523,6.836,17.578,36.621,-3.418,34.668
1678714323.527,-11.719,24.414,35.645,-49.316,15.137
1678714323.531,0.488,23.926,29.297,-47.363,50.781
1678714323.534,24.902,20.996,18.555,8.301,37.598
1678714323.538,29.785,20.508,15.137,37.598,-25.391
1678714323.542,8.789,27.832,28.320,6.348,4.395
1678714323.546,-5.371,31.738,36.133,-28.320,65.430
1678714323.550,-8.301,27.832,28.809,-25.391,17.090
1678714323.554,12.695,23.926,31.738,18.555,-25.391
1678714323.558,32.715,26.855,35.156,48.828,19.043
1678714323.562,29.297,27.344,36.133,21.973,90.820
1678714323.566,5.859,26.367,39.551,-19.043,17.578
1678714323.570,-5.371,30.273,41.016,-28.809,-47.363
1678714323.573,15.137,23.926,34.180,10.742,30.273
1678714323.577,36.621,20.996,29.297,43.945,37.109
1678714323.581,16.113,24.902,33.203,13.184,-11.719
1678714323.585,-2.441,28.320,44.922,-20.996,7.812
1678714323.589,0.000,24.414,44.434,-29.297,20.508
1678714323.593,9.277,17.090,33.691,-5.859,16.602
1678714323.597,26.367,14.648,30.273,28.809,23.926
1678714323.601,16.113,16.113,34.668,14.648,35.645
1678714323.605,1.465,23.926,41.504,-21.973,-1.953
1678714323.609,-9.766,21.973,32.715,-36.621,47.363
1678714323.613,0.488,18.555,26.367,-4.883,49.316
1678714323.616,34.180,16.602,31.250,32.227,12.695
1678714323.620,25.879,15.137,32.715,25.391,86.426
1678714323.624,0.000,20.996,34.668,-3.906,62.988
1678714323.628,-2.930,20.996,37.109,-28.320,37.598
1678714323.632,-1.953,17.578,33.203,-13.672,6.836
1678714323.636,9.766,14.160,28.320,30.273,17.578
1678714323.640,21.973,14.160,31.250,33.203,-7.324
1678714323.644,-0.488,19.043,36.133,-6.348,-23.926
1678714323.648,-20.020,20.508,36.133,-33.203,31.738
1678714323.652,-9.766,19.531,33.691,-18.066,58.594
1678714323.655,21.973,20.020,33.203,15.137,68.848
1678714323.659,31.738,19.043,30.762,19.531,63.477
1678714323.663,10.742,24.414,34.180,-11.230,27.832
1678714323.667,-9.766,29.785,37.109,-39.551,18.066
1678714323.671,-3.906,26.855,33.691,-25.391,37.598
1678714323.675,25.391,20.996,32.227,24.902,27.344
1678714323.679,33.203,20.508,31.738,37.109,38.086
1678714323.683,8.789,25.391,35.645,0.977,29.297
1678714323.687,-10.254,31.250,40.527,-18.066,4.395
1678714323.691,-6.836,28.809,40.039,-12.207,-21.484
1678714323.695,16.602,20.996,37.109,2.441,-20.996
1678714323.698,24.414,20.996,32.227,17.090,21.484
1678714323.702,15.625,26.855,28.320,7.324,53.223
1678714323.706,-9.766,25.391,33.203,-29.297,15.137
1678714323.710,-22.461,22.949,34.668,-32.715,7.324
1678714323.714,0.488,21.484,29.785,11.230,21.484
1678714323.718,29.785,15.625,29.297,29.297,-3.418
1678714323.722,16.113,18.555,41.992,12.207,7.812
1678714323.726,-16.602,23.438,42.480,-23.926,38.574
1678714323.730,-13.672,19.043,33.203,-34.668,25.879
1678714323.734,3.418,14.160,27.832,-2.930,51.758
1678714323.738,17.578,14.160,29.785,24.414,41.504
1678714323.741,9.766,16.602,39.551,15.625,39.551
1678714323.745,-11.230,16.602,41.504,-34.668,52.734
1678714323.749,-15.137,17.090,38.086,-42.969,41.016
1678714323.753,4.883,15.625,36.133,-8.789,76.660
1678714323.757,26.855,11.230,31.250,17.578,58.105
1678714323.761,15.625,9.766,33.691,12.207,17.090
1678714323.765,-7.812,12.695,37.598,-28.320,47.363
1678714323.769,-20.508,11.230,32.227,-40.527,69.824
1678714323.773,-13.184,10.742,29.785,-13.672,60.059
1678714323.777,18.066,11.719,27.832,16.602,62.012
1678714323.780,18.555,14.648,26.367,6.348,43.457
1678714323.784,-10.742,18.555,37.598,-25.879,35.156
1678714323.788,-21.973,17.090,38.574,-34.668,81.055
1678714323.792,-1.465,13.672,27.832,-17.578,22.949
1678714323.796,15.625,11.719,25.879,11.719,-2.930
1678714323.800,11.230,13.184,30.273,8.789,43.945
1678714323.804,-9.766,17.090,31.738,-26.367,-7.812
1678714323.808,-27.832,19.531,30.762,-53.711,-2.930
1678714323.812,-10.254,15.625,34.180,-34.668,1.953
1678714323.816,13.672,16.113,29.297,3.418,-13.672
1678714323.820,6.348,16.113,19.043,1.953,-7.324
1678714323.823,-14.648,14.648,26.367,-19.043,1.465
1678714323.827,-36.621,16.602,34.668,-43.945,-21.973
1678714323.831,-25.879,17.578,32.715,-33.691,-33.691
1678714323.835,3.906,13.184,24.414,4.883,11.230
1678714323.839,8.301,9.277,22.949,6.836,37.109
1678714323.843,-8.301,17.090,34.668,-28.320,63.477
1678714323.847,-32.715,23.438,36.621,-53.711,65.918
1678714323.851,-22.949,21.973,32.227,-37.598,53.711
1678714323.855,5.859,19.043,30.762,-2.441,0.977
1678714323.859,7.324,11.230,25.879,11.719,-33.691
1678714323.863,4.883,14.160,23.926,-4.883,45.410
1678714323.866,-10.742,21.484,35.645,-30.273,43.457
1678714323.870,-13.184,19.531,42.969,-27.832,43.457
1678714323.874,5.859,19.531,35.645,6.348,49.316
1678714323.878,15.137,21.973,37.109,20.020,-19.043
1678714323.882,5.859,20.996,38.086,-3.418,1.465
1678714323.886,-20.020,24.414,41.992,-33.203,-4.883
1678714323.890,-23.926,26.855,43.945,-39.551,39.062
1678714323.894,4.883,21.484,34.180,-13.184,12.207
1678714323.898,12.695,21.484,30.762,13.184,-30.273
1678714323.902,0.977,23.438,36.621,-3.906,34.668
1678714323.905,-9.277,27.832,44.434,-41.016,66.895
1678714323.909,-19.043,34.180,52.734,-40.039,75.684
1678714323.913,-2.441,26.367,44.922,-4.883,62.500
1678714323.917,22.461,16.602,36.133,19.043,50.293
1678714323.921,16.602,19.531,42.969,11.230,-1.465
1678714323.925,-9.277,23.926,49.805,-26.367,31.738
1678714323.929,-17.578,23.926,46.387,-41.016,77.637
1678714323.933,-0.488,26.855,43.457,-14.648,43.457
1678714323.937,19.531,24.902,38.086,4.883,48.828
1678714323.941,16.602,23.438,31.738,-6.836,20.020
1678714323.945,-16.113,26.367,40.527,-40.527,35.645
1678714323.948,-29.297,27.832,41.016,-58.105,63.965
1678714323.952,-14.648,23.926,29.297,-36.133,33.691
1678714323.956,3.418,16.602,29.785,-3.418,6.348
1678714323.960,9.277,16.113,35.645,-8.301,25.879
1678714323.964,-10.254,16.602,36.133,-36.621,11.230
1678714323.968,-24.902,20.508,34.180,-47.852,28.809
1678714323.972,-5.371,26.367,38.086,-28.320,76.660
1678714323.976,17.578,27.344,43.945,4.883,70.801
1678714323.980,21.973,23.926,36.621,4.395,46.387
1678714323.984,-9.766,19.531,28.320,-36.621,54.199
1678714323.987,-9.766,20.020,31.250,-49.805,82.031
1678714323.991,5.859,27.832,32.715,-17.090,89.844
1678714323.995,20.996,29.297,39.062,22.461,34.180
1678714323.999,32.227,12.695,41.504,24.902,5.371
1678714324.003,11.719,7.812,41.016,0.000,26.367
1678714324.007,-6.348,6.836,44.922,-12.207,37.109
1678714324.011,9.766,2.441,40.527,-3.418,11.719
1678714324.015,35.645,1.465,38.574,20.508,-0.488
1678714324.019,29.297,5.371,49.316,36.621,32.227
1678714324.023,12.207,12.207,60.059,9.277,-0.488
1678714324.027,-3.906,2.930,52.246,-25.391,33.691
1678714324.030,-9.766,1.465,45.898,-15.625,121.582
1678714324.034,13.672,0.977,46.387,12.695,90.332
1678714324.038,25.879,-10.254,40.039,25.391,55.176
1678714324.042,6.348,-3.418,41.016,3.906,109.375
1678714324.046,-11.230,7.324,42.480,-40.527,97.168
1678714324.050,-0.488,2.441,43.457,-32.715,53.223
1678714324.054,14.648,-3.418,35.645,11.230,57.129
1678714324.058,23.438,1.465,39.062,41.504,33.691
1678714324.062,13.184,8.789,49.316,23.926,36.621
1678714324.066,-9.277,13.184,55.176,-28.809,91.797
1678714324.070,-12.207,6.836,47.852,-46.875,80.078
1678714324.073,6.836,4.395,39.551,-12.207,6.836
1678714324.077,21.973,14.648,37.598,19.531,71.289
1678714324.081,6.836,8.789,31.250,9.766,79.590
1678714324.085,-11.230,4.883,46.387,-23.926,43.457
1678714324.089,-14.648,10.742,44.922,-39.551,50.293
1678714324.093,-1.465,-4.883,16.602,-11.719,6.836
1678714324.097,14.160,-13.184,15.625,30.762,35.645
1678714324.101,3.906,-2.930,31.250,15.137,11.230
1678714324.105,-20.996,7.324,35.645,-32.227,1.953
1678714324.109,-26.855,11.230,43.945,-43.457,40.039
1678714324.112,-11.230,7.324,41.992,-13.184,44.434
1678714324.116,5.859,7.812,23.926,14.160,19.043
1678714324.120,1.465,3.906,21.484,18.066,4.883
1678714324.124,-26.367,0.000,30.762,-26.855,23.926
1678714324.128,-35.156,8.301,40.527,-62.012,40.527
1678714324.132,-7.812,9.277,39.062,-27.344,26.855
1678714324.136,20.508,8.789,30.762,18.066,30.273
1678714324.140,13.672,18.555,36.621,17.090,17.090
1678714324.144,-13.672,20.508,38.086,-26.855,82.031
1678714324.148,-25.391,13.184,36.133,-50.293,92.285
1678714324.152,-20.020,10.742,37.598,-30.273,39.551
1678714324.155,4.395,8.301,33.691,4.883,31.738
1678714324.159,16.602,14.648,33.691,21.484,44.434
1678714324.163,-3.906,20.996,37.598,-6.836,141.113
1678714324.167,-24.902,21.484,43.457,-45.410,54.688
1678714324.171,-17.578,28.320,42.969,-37.109,-51.270
1678714324.175,5.859,23.926,37.598,2.930,33.203
1678714324.179,16.602,17.090,33.203,20.020,72.266
1678714324.183,-1.465,19.043,30.762,0.488,-18.555
1678714324.187,-22.461,21.484,33.203,-45.898,-15.137
1678714324.191,-15.625,24.414,30.273,-43.945,60.059
1678714324.195,10.742,23.926,28.809,5.859,11.719
1678714324.198,11.230,19.531,37.109,24.414,-8.301
1678714324.202,-9.277,17.090,40.039,-10.742,23.926
1678714324.206,-11.230,20.508,37.109,-42.969,-10.742
1678714324.210,-11.230,19.531,35.156,-43.457,-57.129
1678714324.214,5.859,15.625,25.391,-9.277,-20.020
1678714324.218,24.902,20.020,24.414,20.508,66.406
1678714324.222,1.465,20.996,39.062,-7.812,78.613
1678714324.226,-20.996,19.043,51.758,-35.156,4.395
1678714324.230,-10.254,21.973,51.270,-32.715,-38.086
1678714324.234,6.348,21.484,44.434,-2.930,7.324
1678714324.237,13.672,24.414,32.715,29.297,19.531
1678714324.241,4.883,26.367,39.062,2.441,30.762
1678714324.245,-14.160,24.902,51.270,-35.645,25.879
1678714324.249,-19.043,25.879,31.250,-34.180,-8.301
1678714324.253,1.953,23.438,25.391,-0.488,48.340
1678714324.257,19.531,25.879,30.273,23.926,61.035
1678714324.261,13.672,25.879,30.273,10.742,23.926
1678714324.265,-13.672,17.090,29.785,-31.250,48.828
1678714324.269,-36.621,13.184,24.902,-54.688,52.734
1678714324.273,-14.648,18.066,22.461,-21.973,-20.508
1678714324.277,8.301,17.578,25.391,8.789,22.949
1678714324.280,1.953,20.508,32.227,0.000,96.680
1678714324.284,-13.184,30.273,34.180,-21.973,52.246
1678714324.288,-19.043,37.598,29.297,-44.922,-20.508
1678714324.292,0.977,35.645,26.855,-22.461,60.547
1678714324.296,25.391,30.273,29.297,28.809,109.863
1678714324.300,26.367,30.762,29.785,19.043,33.203
1678714324.304,1.953,19.531,30.273,-23.926,32.715
1678714324.308,-6.836,8.789,34.668,-20.020,29.297
1678714324.312,10.742,5.371,28.320,13.672,17.090
1678714324.316,38.086,-0.977,17.578,47.363,5.859
1678714324.319,49.805,1.953,15.137,54.199,-24.414
1678714324.323,26.855,9.277,25.879,0.977,-11.719
1678714324.327,5.371,13.184,34.668,-23.438,7.324
1678714324.331,4.395,11.230,35.156,4.883,32.227
1678714324.335,24.414,2.930,21.484,29.785,29.785
1678714324.339,33.691,6.348,12.207,36.621,25.879
1678714324.343,22.461,23.926,33.203,7.324,78.613
1678714324.347,-0.488,22.461,41.992,-29.297,49.805
1678714324.351,3.418,17.578,37.109,-12.695,-43.945
1678714324.355,32.227,20.508,30.273,37.598,17.578
1678714324.359,36.621,15.625,21.973,47.363,73.242
1678714324.362,20.996,23.926,22.461,15.625,-19.531
1678714324.366,6.348,30.273,27.832,-30.273,-64.453
1678714324.370,2.930,21.973,26.367,-25.391,-28.809
1678714324.374,28.320,18.066,17.090,21.973,-19.531
1678714324.378,43.457,21.484,11.230,37.598,68.359
1678714324.382,12.207,24.902,14.160,10.254,125.000
1678714324.386,-8.789,23.926,21.973,-20.020,49.805
1678714324.390,-15.137,18.066,18.555,-21.484,10.742
1678714324.394,8.789,14.648,10.742,4.395,38.086
1678714324.398,32.227,10.254,3.906,17.578,20.508
1678714324.402,11.230,15.625,14.160,-0.488,9.766
1678714324.405,-13.184,24.414,19.043,-33.691,59.082
1678714324.409,-14.160,20.508,7.324,-36.621,71.777
1678714324.413,0.000,11.719,1.953,-0.977,1.953
1678714324.417,22.461,7.812,-1.465,18.066,-29.297
1678714324.421,8.789,20.508,2.930,2.930,2.930
1678714324.425,-26.855,21.484,16.602,-30.762,41.504
1678714324.429,-21.973,11.230,16.113,-34.180,58.594
1678714324.433,-11.719,2.930,3.906,-1.953,5.371
1678714324.437,0.488,3.906,0.000,20.508,-0.977
1678714324.441,8.789,17.090,5.371,11.719,60.547
1678714324.444,-18.555,21.484,22.949,-21.484,65.918
1678714324.448,-37.109,13.184,23.438,-38.574,-4.395
1678714324.452,-13.184,9.277,11.719,-5.371,-13.672
1678714324.456,14.160,10.742,15.625,24.414,52.246
1678714324.460,9.766,10.254,17.090,9.766,33.203
1678714324.464,-20.020,16.113,16.602,-20.020,62.988
1678714324.468,-30.762,21.973,20.508,-34.668,57.129
1678714324.472,2.441,16.113,20.020,-9.277,16.602
1678714324.476,19.531,14.648,18.066,24.414,69.824
1678714324.480,2.441,19.043,20.508,9.766,45.410
1678714324.484,-17.578,11.230,20.020,-21.973,12.207
1678714324.487,-27.832,6.348,20.508,-42.480,-4.395
1678714324.491,-17.578,6.348,15.625,-37.598,8.789
1678714324.495,7.812,12.695,11.719,9.277,34.668
1678714324.499,14.648,18.555,20.996,26.855,-5.859
1678714324.503,-7.324,18.066,29.785,-10.254,-47.852
1678714324.507,-20.508,20.508,24.902,-33.691,20.508
1678714324.511,-9.766,19.043,21.484,-14.648,41.504
1678714324.515,14.160,11.230,22.949,24.902,16.113
1678714324.519,24.902,12.207,22.949,29.785,16.602
1678714324.523,14.160,18.066,28.809,-5.371,-3.418
1678714324.527,-14.648,25.879,35.645,-38.574,57.129
1678714324.530,-20.020,28.320,39.551,-30.273,14.160
1678714324.534,12.695,15.137,32.227,10.254,-42.969
1678714324.538,22.949,7.812,20.508,23.926,7.812
1678714324.542,-9.277,11.719,25.391,-10.742,30.273
1678714324.546,-29.785,13.672,26.855,-36.133,-15.137
1678714324.550,-13.184,16.602,25.391,-22.949,-44.922
1678714324.554,-0.488,16.602,25.879,2.441,2.930
1678714324.558,9.277,18.066,24.902,19.531,45.410
1678714324.562,8.789,19.531,29.297,5.371,44.922
1678714324.566,-15.625,14.648,34.668,-40.527,34.180
1678714324.569,-29.785,8.789,30.273,-36.621,79.102
1678714324.573,-3.418,5.371,29.297,8.789,95.703
1678714324.577,21.484,7.812,33.203,22.949,84.473
1678714324.581,14.648,12.207,40.039,4.395,52.734
1678714324.585,-10.254,20.508,43.945,-29.297,27.344
1678714324.589,-27.832,21.484,43.457,-35.645,58.105
1678714324.593,-8.789,13.184,47.852,2.930,78.125
1678714324.597,10.254,8.301,43.457,28.809,45.898
1678714324.601,1.953,12.695,35.156,7.324,31.250
1678714324.605,-6.836,25.391,47.852,-22.461,-5.859
1678714324.609,-3.418,28.809,60.547,-22.461,6.836
1678714324.612,7.324,24.414,52.734,-1.465,65.430
1678714324.616,6.348,15.137,44.434,26.855,86.426
1678714324.620,-0.977,15.625,48.828,20.508,51.270
1678714324.624,-13.672,21.484,48.828,-21.973,36.621
1678714324.628,-18.555,22.461,57.617,-47.363,41.016
1678714324.632,0.000,16.602,56.641,-7.324,89.844
1678714324.636,15.625,13.672,44.434,41.016,153.809
1678714324.640,8.789,19.043,52.734,19.531,58.594
1678714324.644,-21.484,21.973,45.898,-31.738,7.324
1678714324.648,-27.344,20.508,38.574,-49.316,57.617
1678714324.651,-16.113,16.602,42.969,-19.043,22.461
1678714324.655,-3.906,19.531,41.504,23.926,4.395
1678714324.659,14.160,20.020,41.016,18.066,25.391
1678714324.663,-2.930,19.531,45.898,-24.902,23.926
1678714324.667,-37.598,22.949,50.781,-54.199,17.578
1678714324.671,-36.621,17.578,41.992,-44.922,55.664
1678714324.675,-1.465,13.672,27.832,-2.930,98.145
1678714324.679,7.812,15.137,30.762,15.137,39.062
1678714324.683,-14.160,18.066,41.992,-10.254,20.508
1678714324.687,-32.715,22.949,45.898,-47.363,48.340
1678714324.691,-25.391,16.113,37.598,-41.016,57.129
1678714324.694,3.418,10.254,31.250,6.348,57.129
1678714324.698,12.695,13.184,38.574,24.414,-0.977
1678714324.702,-6.836,13.672,41.504,-10.254,51.758
1678714324.706,-32.715,14.160,32.715,-54.199,65.918
1678714324.710,-22.949,20.020,32.715,-41.992,63.965
1678714324.714,6.348,24.414,33.691,11.719,69.336
1678714324.718,20.508,23.438,28.320,25.879,79.102
1678714324.722,-0.977,23.926,37.109,-10.254,57.129
1678714324.726,-20.996,24.414,48.340,-48.340,-5.371
1678714324.730,-17.090,17.578,42.969,-47.852,41.016
1678714324.734,14.160,14.648,33.691,-10.254,44.922
1678714324.737,29.785,12.695,28.320,17.578,5.371
1678714324.741,-4.395,13.672,27.832,-4.395,14.648
1678714324.745,-26.367,22.461,38.574,-40.527,71.777
1678714324.749,-28.320,18.066,32.227,-46.387,24.414
1678714324.753,-4.395,16.113,21.973,-2.441,-33.691
1678714324.757,21.484,20.508,26.367,32.227,-20.508
1678714324.761,13.184,20.020,26.367,6.348,-20.020
1678714324.765,-19.531,25.879,33.691,-25.391,16.602
1678714324.769,-21.973,26.367,39.062,-21.973,92.773
1678714324.773,17.578,20.020,29.785,15.137,87.891
1678714324.776,27.344,20.508,26.855,30.762,30.762
1678714324.780,-7.324,23.926,30.273,7.812,17.090
1678714324.784,-38.086,29.785,28.809,-51.270,34.180
1678714324.788,-52.734,33.691,22.949,-77.637,21.973
1678714324.792,-43.457,23.438,17.578,-43.945,8.301
1678714324.796,-27.344,15.625,19.043,-20.996,-11.230
1678714324.800,-23.926,22.949,25.391,-25.391,19.043
1678714324.804,-41.504,25.391,30.762,-59.570,13.672
1678714324.808,-55.664,22.461,28.809,-84.961,-18.066
1678714324.812,-53.223,18.066,26.367,-63.477,85.449
1678714324.816,-38.574,16.602,22.461,-23.438,44.434
1678714324.819,-27.344,21.484,19.531,-18.555,-16.602
1678714324.823,-46.875,21.484,18.555,-56.152,4.395
1678714324.827,-52.246,30.762,32.227,-74.219,0.000
1678714324.831,-30.762,30.273,28.809,-44.922,20.020
1678714324.835,3.418,17.090,19.043,-1.953,19.531
1678714324.839,15.625,21.973,32.227,10.254,17.090
1678714324.843,-21.973,23.926,33.691,-26.367,31.738
1678714324.847,-47.363,28.320,34.668,-60.547,84.473
1678714324.851,-29.297,25.879,35.645,-37.598,87.402
1678714324.855,-3.906,16.113,19.531,-0.488,-12.207
1678714324.859,6.836,20.996,19.531,8.301,2.441
1678714324.862,-2.930,29.785,40.039,-17.578,76.172
1678714324.866,-28.320,36.133,50.293,-50.293,37.598
1678714324.870,-28.809,30.273,45.898,-43.457,61.523
1678714324.874,-7.324,13.672,34.668,-10.254,72.754
1678714324.878,2.930,12.695,22.949,7.812,28.320
1678714324.882,-23.438,20.508,38.574,-8.301,26.367
1678714324.886,-52.246,18.555,55.664,-43.457,8.301
1678714324.890,-43.457,21.484,38.086,-56.152,-19.531
1678714324.894,-13.184,19.531,22.949,-12.207,37.598
1678714324.898,12.695,10.742,25.391,9.277,106.934
1678714324.901,-8.789,17.578,33.203,-27.344,69.824
1678714324.905,-42.480,24.414,39.551,-66.406,49.805
1678714324.909,-42.480,20.996,42.480,-64.941,30.762
1678714324.913,-11.719,36.133,45.898,-12.207,8.301
1678714324.917,11.719,41.504,37.109,10.254,59.570
1678714324.921,-8.789,12.207,33.691,-14.648,78.613
1678714324.925,-35.156,11.230,41.504,-60.547,52.734
1678714324.929,-41.504,16.602,30.273,-73.242,47.852
1678714324.933,-22.461,3.906,28.320,-28.809,15.625
1678714324.937,-2.441,7.324,38.086,5.371,26.855
1678714324.941,1.465,16.113,49.805,-6.348,13.184
1678714324.944,-23.438,19.531,46.387,-45.410,6.836
1678714324.948,-29.785,24.414,35.645,-57.129,36.621
1678714324.952,5.371,13.184,28.320,-25.391,73.242
1678714324.956,13.184,14.160,24.902,6.836,75.684
1678714324.960,-7.324,20.508,30.762,-9.766,67.871
1678714324.964,-26.367,24.902,44.434,-51.758,53.223
1678714324.968,-20.020,35.645,65.918,-54.688,-23.438
1678714324.972,-12.207,23.926,49.316,-24.414,-19.531
1678714324.976,8.301,11.230,18.555,9.766,41.504
1678714324.980,21.973,11.230,22.461,15.625,38.574
1678714324.984,-9.766,17.090,33.691,-20.996,20.996
1678714324.987,-25.879,27.344,38.574,-58.594,47.852
1678714324.991,-10.254,25.391,38.574,-43.945,71.289
1678714324.995,7.812,15.137,35.645,-2.441,5.371
1678714324.999,8.789,16.602,40.527,6.836,6.348
1678714325.003,-11.719,23.438,48.828,-22.461,22.461
1678714325.007,-29.297,26.367,43.945,-48.828,-11.230
1678714325.011,-24.414,21.484,39.062,-28.809,23.438
1678714325.015,-0.977,15.137,34.668,-3.906,62.500
1678714325.019,8.301,19.043,35.156,5.859,22.461
1678714325.023,-13.184,22.949,41.016,-14.160,5.371
1678714325.026,-32.715,20.996,45.898,-52.246,25.879
1678714325.030,-20.020,14.648,48.340,-40.039,2.930
1678714325.034,-0.488,6.348,41.992,-12.207,6.836
1678714325.038,12.207,11.230,37.109,-5.859,6.836
1678714325.042,4.395,20.508,37.109,-21.484,74.219
1678714325.046,-18.066,19.531,41.016,-57.129,92.773
1678714325.050,-23.926,19.043,41.992,-53.223,68.359
1678714325.054,6.348,17.090,39.062,-9.766,76.172
1678714325.058,21.973,14.160,44.434,13.184,17.578
1678714325.062,-14.160,14.648,43.457,-13.672,-26.855
1678714325.066,-31.738,16.602,38.574,-51.758,-5.859
1678714325.069,-28.320,20.020,35.645,-48.828,12.695
1678714325.073,-16.602,18.066,29.297,-10.254,56.641
1678714325.077,12.695,20.996,30.762,24.414,30.762
1678714325.081,4.883,23.926,36.133,4.395,-59.082
1678714325.085,-23.438,21.484,42.969,-32.227,5.371
1678714325.089,-22.461,20.508,38.574,-33.203,67.871
1678714325.093,7.324,22.949,32.227,-12.695,34.668
1678714325.097,31.738,19.043,29.785,16.113,-11.719
1678714325.101,2.930,14.648,23.926,9.766,-32.715
1678714325.105,-28.320,31.738,39.551,-33.691,40.039
1678714325.108,-27.344,29.785,47.363,-45.410,84.961
1678714325.112,-17.578,8.789,25.391,-19.531,64.941
1678714325.116,0.977,7.812,21.973,7.812,50.293
1678714325.120,-5.371,18.555,23.926,6.836,94.727
1678714325.124,-33.691,23.438,20.996,-42.969,127.441
1678714325.128,-21.973,27.832,33.203,-53.711,101.074
1678714325.132,0.977,23.926,48.828,-3.418,72.266
1678714325.136,14.648,5.371,43.457,30.762,35.645
1678714325.140,24.414,14.648,38.574,25.391,-19.043
1678714325.144,-5.371,22.461,41.992,-18.555,33.203
1678714325.148,-23.926,24.902,45.898,-48.828,82.031
1678714325.151,-13.184,40.527,39.062,-21.484,-33.691
1678714325.155,17.578,20.996,22.461,13.672,-10.742
1678714325.159,25.879,-2.441,22.461,13.184,50.781
1678714325.163,-20.508,5.371,20.508,-30.762,14.160
1678714325.167,-31.250,20.020,38.086,-59.082,4.883
1678714325.171,0.000,24.902,52.734,-30.762,68.848
1678714325.175,12.695,26.855,40.039,13.672,110.352
1678714325.179,33.691,19.531,38.574,37.109,26.855
1678714325.183,5.371,7.324,31.250,-4.883,53.711
1678714325.187,-42.480,11.719,32.227,-50.781,33.203
1678714325.191,-23.926,9.766,38.086,-25.391,18.066
1678714325.194,2.930,4.395,27.344,13.672,110.352
1678714325.198,-5.859,6.836,21.484,2.441,85.449
1678714325.202,2.930,26.855,61.035,-15.137,33.203
1678714325.206,-5.859,35.156,56.152,-33.691,8.301
1678714325.210,-28.809,10.254,10.742,-48.340,49.316
1678714325.214,-1.953,-1.465,8.789,-9.277,26.367
1678714325.218,11.230,0.488,13.672,20.020,-3.418
1678714325.222,-13.184,-6.836,12.695,-28.320,52.246
1678714325.226,-20.020,28.320,43.457,-56.152,69.824
1678714325.230,-11.719,50.293,55.664,-30.273,61.523
1678714325.233,-4.395,1.953,10.742,-8.301,54.199
1678714325.237,5.859,-11.230,9.277,3.906,69.824
1678714325.241,-4.883,7.324,32.715,-16.602,36.621
1678714325.245,-44.434,6.836,10.742,-67.383,24.414
1678714325.249,-34.180,22.461,2.930,-52.246,38.574
1678714325.253,3.418,36.621,42.480,0.977,59.082
1678714325.257,0.000,14.648,28.809,-0.977,16.113
1678714325.261,-16.602,10.254,0.977,-34.668,-2.930
1678714325.265,-38.086,21.484,3.906,-69.336,22.949
1678714325.269,-45.898,20.020,-3.906,-76.660,13.184
1678714325.273,-3.418,21.484,28.320,-15.137,34.180
1678714325.276,29.785,16.602,27.832,36.621,49.316
1678714325.280,14.648,16.602,7.324,7.812,27.832
1678714325.284,-1.465,29.785,33.203,-27.344,58.105
1678714325.288,-27.344,31.738,20.508,-42.480,41.016
1678714325.292,-22.461,22.949,-0.488,-32.715,10.742
1678714325.296,8.789,11.719,11.719,-10.254,30.273
1678714325.300,-6.836,11.230,23.438,-12.207,26.367
1678714325.304,-57.129,13.672,20.508,-63.965,40.039
1678714325.308,-60.059,24.414,18.555,-88.867,58.594
1678714325.312,-13.672,33.203,20.020,-44.922,46.387
1678714325.316,15.137,32.227,15.137,-3.906,26.367
1678714325.319,5.859,41.504,14.160,-11.230,40.527
1678714325.323,-26.855,41.016,20.020,-54.199,22.949
1678714325.327,-49.805,31.250,21.973,-70.312,-18.066
1678714325.331,-36.621,30.762,5.859,-43.457,-5.371
1678714325.335,-5.859,30.762,-3.906,-11.230,21.973
1678714325.339,-5.859,24.414,-0.488,-21.973,48.828
1678714325.343,-33.691,31.738,5.371,-52.246,70.801
1678714325.347,-39.062,42.480,10.254,-65.430,53.223
1678714325.351,-35.645,37.109,16.602,-58.105,53.711
1678714325.355,-20.508,30.762,14.648,-13.672,41.504
1678714325.358,-11.230,26.367,-1.953,-4.883,74.707
1678714325.362,-47.852,19.043,-4.395,-50.781,63.965
1678714325.366,-73.242,20.020,0.488,-81.543,27.344
1678714325.370,-58.105,21.973,0.488,-63.477,66.895
1678714325.374,-18.066,19.531,4.395,-28.320,64.941
1678714325.378,-9.277,22.461,4.395,-18.066,64.453
1678714325.382,-38.574,22.949,4.395,-48.340,32.715
1678714325.386,-52.246,21.484,11.230,-75.195,21.973
1678714325.390,-48.828,27.832,18.555,-53.223,56.152
1678714325.394,-36.133,19.043,4.395,-19.043,56.152
1678714325.398,-25.391,10.254,-0.977,-8.301,43.457
1678714325.401,-41.992,20.996,14.160,-25.391,-20.508
1678714325.405,-56.152,20.996,13.672,-56.641,-0.977
1678714325.409,-39.062,18.555,11.719,-64.453,35.645
1678714325.413,-19.531,16.602,11.719,-21.484,17.090
1678714325.417,-12.207,16.113,14.648,11.719,63.965
1678714325.421,-15.137,22.461,29.297,-9.766,46.875
1678714325.425,-41.992,23.926,27.344,-46.875,13.184
1678714325.429,-37.109,23.926,20.020,-45.898,-8.301
1678714325.433,-10.254,22.461,18.555,-20.996,34.668
1678714325.437,-7.324,13.672,20.020,-6.836,81.055
1678714325.440,-22.949,7.812,28.320,-12.207,53.711
1678714325.444,-39.062,12.695,30.762,-38.086,78.613
1678714325.448,-27.832,21.484,38.086,-40.039,34.668
1678714325.452,-6.836,27.832,39.551,-16.113,52.246
1678714325.456,12.695,27.344,35.645,7.812,84.961
1678714325.460,2.930,20.020,34.668,11.230,28.320
1678714325.464,-33.203,13.672,38.574,-21.484,7.812
1678714325.468,-34.668,9.766,35.645,-58.594,37.109
1678714325.472,-6.348,8.789,38.574,-20.020,76.172
1678714325.476,7.324,9.766,53.711,25.391,33.691
1678714325.480,11.719,11.230,67.871,12.207,39.551
1678714325.483,-19.043,13.672,67.383,-24.902,74.707
1678714325.487,-35.156,25.391,48.828,-32.227,82.520
1678714325.491,-8.789,18.066,57.617,1.465,64.941
1678714325.495,19.531,-0.488,55.664,27.344,14.160
1678714325.499,21.973,8.789,38.086,28.809,11.719
1678714325.503,0.488,33.203,58.105,2.930,28.809
1678714325.507,-6.348,34.180,62.988,-25.879,55.176
1678714325.511,8.301,20.020,47.363,-3.418,46.387
1678714325.515,33.691,20.508,34.668,43.945,13.184
1678714325.519,35.156,18.555,36.621,34.668,26.367
1678714325.523,21.484,18.555,40.527,-17.090,9.766
1678714325.526,-4.395,24.414,37.109,-43.457,-14.648
1678714325.530,-22.461,26.367,35.156,-34.180,-34.668
1678714325.534,15.137,37.109,38.086,8.789,-1.953
1678714325.538,34.180,36.133,54.199,21.484,36.133
1678714325.542,2.441,21.484,22.949,-30.273,-9.277
1678714325.546,3.906,43.457,23.438,-32.715,41.504
1678714325.550,13.184,45.898,40.527,-5.859,104.004
1678714325.554,20.996,20.996,20.508,15.137,42.480
1678714325.558,12.695,8.301,16.113,24.902,-3.418
1678714325.562,-8.789,15.137,21.484,-9.766,20.996
1678714325.565,-8.789,32.715,43.457,-42.969,68.848
1678714325.569,-7.812,25.879,38.574,-39.551,9.766
1678714325.573,2.930,15.625,14.160,0.000,-16.113
1678714325.577,-8.301,12.695,20.996,17.090,58.105
1678714325.581,-14.648,23.926,29.297,-2.930,75.195
1678714325.585,-24.902,35.645,29.297,-43.945,16.113
1678714325.589,-29.785,22.949,29.785,-59.082,-38.086
1678714325.593,-6.348,13.184,25.879,-10.254,-14.160
1678714325.597,6.348,12.207,22.461,17.090,23.926
1678714325.601,-1.953,17.090,31.738,-5.859,5.371
1678714325.605,-12.207,34.180,55.176,-28.809,51.270
1678714325.608,-23.438,30.273,29.297,-32.227,-8.789
1678714325.612,-11.719,10.254,-10.254,-6.348,3.906
1678714325.616,16.602,10.742,-4.883,11.230,125.488
1678714325.620,1.465,20.020,23.926,0.977,66.895
1678714325.624,-14.160,23.926,31.738,-28.320,33.691
1678714325.628,-20.996,22.949,27.344,-52.246,40.527
1678714325.632,-21.484,16.602,21.973,-29.297,69.824
1678714325.636,5.371,16.602,15.137,5.371,44.434
1678714325.640,5.371,15.625,30.762,0.977,59.082
1678714325.644,-10.254,26.367,41.992,-28.320,53.223
1678714325.648,-7.812,35.645,38.086,-36.621,23.438
1678714325.651,-5.371,21.484,30.762,-16.113,39.551
1678714325.655,2.441,10.254,40.039,3.906,49.316
1678714325.659,13.184,15.625,45.898,3.906,46.387
1678714325.663,-1.465,29.297,14.160,-22.461,60.547
1678714325.667,-22.949,39.062,6.348,-50.781,-12.207
1678714325.671,-14.160,23.926,33.691,-33.691,-49.316
1678714325.675,10.742,14.160,28.809,8.789,66.406
1678714325.679,15.137,19.531,5.371,11.719,57.129
1678714325.683,3.906,21.973,16.602,-25.879,-5.371
1678714325.687,-21.484,37.109,32.227,-55.176,33.203
1678714325.690,-21.484,49.805,32.715,-22.461,41.992
1678714325.694,19.531,22.949,15.625,17.090,-0.488
1678714325.698,24.414,7.812,10.254,24.414,-7.324
1678714325.702,-2.930,12.695,24.414,-14.160,-10.742
1678714325.706,-21.484,26.367,49.805,-34.668,3.906
1678714325.710,-23.438,26.367,27.832,-18.555,-4.883
1678714325.714,4.395,14.648,8.789,5.859,2.930
1678714325.718,19.043,19.043,41.992,32.715,32.227
1678714325.722,-4.883,29.297,36.133,-3.906,-12.207
1678714325.726,-24.414,35.645,17.578,-41.992,-15.625
1678714325.730,-15.625,20.020,11.230,-22.949,48.828
1678714325.733,5.371,11.230,14.648,4.883,45.898
1678714325.737,8.301,13.672,16.113,23.926,16.602
1678714325.741,-3.906,15.625,13.184,5.371,39.062
1678714325.745,-11.230,22.461,22.461,-28.809,20.996
1678714325.749,-0.488,28.320,29.297,-38.574,89.844
1678714325.753,15.137,25.391,17.578,-15.137,145.020
1678714325.757,24.902,21.484,25.391,20.508,43.457
1678714325.761,7.812,23.926,32.715,2.441,4.883
1678714325.765,-12.695,31.738,32.715,-29.297,38.086
1678714325.769,-26.367,26.855,21.484,-25.879,32.227
1678714325.772,-8.301,18.555,4.883,1.465,46.875
1678714325.776,22.949,17.578,17.090,27.832,19.043
1678714325.780,8.789,16.602,24.414,3.418,53.223
1678714325.784,-11.719,22.949,29.785,-35.645,97.168
1678714325.788,-7.324,35.156,40.039,-32.227,66.406
1678714325.792,7.324,27.344,34.180,-0.488,13.672
1678714325.796,11.230,15.625,29.297,28.320,-36.621
1678714325.800,2.441,20.508,24.414,19.043,0.000
1678714325.804,-25.391,26.855,24.902,-28.320,32.715
1678714325.808,-34.668,27.832,28.809,-47.363,33.203
1678714325.812,-8.301,22.949,41.504,-4.883,25.879
1678714325.815,9.277,9.766,13.672,17.090,65.430
1678714325.819,21.973,13.184,-0.977,-4.395,52.246
1678714325.823,-12.207,23.438,28.320,-30.273,37.598
1678714325.827,-48.340,29.297,28.320,-41.992,54.688
1678714325.831,-23.926,21.973,20.020,-20.508,-13.184
1678714325.835,16.602,17.090,23.438,8.301,-34.668
1678714325.839,10.742,18.555,24.902,7.324,39.551
1678714325.843,-29.785,17.578,24.902,-20.996,88.379
1678714325.847,-19.531,29.785,33.203,-28.320,38.086
1678714325.851,0.000,26.855,42.969,-6.836,26.367
1678714325.855,4.883,20.508,31.738,7.812,48.340
1678714325.858,11.230,23.438,12.695,1.465,40.527
1678714325.862,-15.625,18.555,25.391,-16.602,-7.812
1678714325.866,-33.691,20.996,31.250,-34.668,-31.738
1678714325.870,-10.742,20.508,27.344,-28.809,3.418
1678714325.874,5.371,12.207,28.320,0.488,14.160
1678714325.878,0.000,13.672,23.438,11.230,49.316
1678714325.882,-13.672,29.785,35.645,-11.719,58.594
1678714325.886,-30.762,28.809,54.688,-38.086,53.223
1678714325.890,-36.133,12.695,32.227,-31.738,84.961
1678714325.894,-0.488,19.043,10.742,8.789,63.965
1678714325.897,22.461,24.902,33.203,25.879,32.715
1678714325.901,1.465,18.555,47.363,-10.254,68.848
1678714325.905,-25.391,15.137,42.480,-42.969,36.621
1678714325.909,-21.973,18.066,40.039,-29.297,15.137
1678714325.913,4.395,22.949,41.504,13.672,67.383
1678714325.917,11.230,17.090,31.250,31.250,42.969
1678714325.921,5.371,16.602,41.992,-0.488,6.836
1678714325.925,-6.836,23.926,66.406,-24.902,32.227
1678714325.929,-16.113,20.508,47.363,-32.227,48.340
1678714325.933,4.395,18.555,34.180,-0.977,48.340
1678714325.937,27.832,18.066,47.363,28.320,35.645
1678714325.940,20.996,15.625,49.316,12.207,15.137
1678714325.944,-5.859,26.855,45.898,-8.301,-33.691
1678714325.948,-22.949,28.320,29.785,-38.086,-21.484
1678714325.952,4.395,19.043,19.043,-19.043,58.594
1678714325.956,55.176,24.902,27.344,33.691,53.711
1678714325.960,61.035,35.156,25.391,38.086,-6.836
1678714325.964,26.855,35.645,36.621,2.441,0.977
1678714325.968,16.113,32.715,39.551,0.488,39.062
1678714325.972,33.691,23.926,15.625,33.203,-11.719
1678714325.976,49.805,19.043,10.254,56.152,-5.371
1678714325.980,49.316,28.809,31.738,53.711,47.363
1678714325.983,26.367,38.086,50.293,27.832,36.621
1678714325.987,9.277,34.668,49.805,1.953,-29.785
1678714325.991,18.555,22.949,37.598,12.695,-30.273
1678714325.995,43.945,11.230,12.207,54.688,66.895
1678714325.999,45.898,15.137,15.625,53.223,16.113
1678714326.003,12.695,20.996,29.785,-1.465,-55.664
1678714326.007,-0.977,22.949,39.062,-33.691,-28.320
1678714326.011,15.625,23.926,37.109,-18.066,-26.855
1678714326.015,41.504,22.461,25.391,21.973,-19.531
1678714326.019,38.086,24.414,26.367,42.969,-9.766
1678714326.022,20.996,29.785,39.062,11.719,21.973
1678714326.026,1.953,29.297,37.598,-33.691,28.320
1678714326.030,-4.883,19.043,27.832,-14.648,41.992
1678714326.034,22.949,23.926,23.438,30.273,24.902
1678714326.038,33.203,27.344,32.227,41.504,9.766
1678714326.042,23.438,22.949,37.598,3.418,20.020
1678714326.046,6.348,21.973,34.180,-37.598,11.719
1678714326.050,-4.883,18.555,35.156,-9.766,-5.859
1678714326.054,23.438,14.160,29.297,23.926,15.625
1678714326.058,42.480,17.578,30.273,33.203,85.449
1678714326.062,16.602,23.438,40.527,10.742,73.242
1678714326.065,-10.742,26.367,42.969,-35.156,-22.461
1678714326.069,2.441,29.785,42.480,-24.414,6.348
1678714326.073,28.320,26.855,42.480,7.812,54.199
1678714326.077,21.484,21.973,36.621,19.043,10.254
1678714326.081,0.977,19.043,35.156,-1.465,22.949
1678714326.085,-12.207,26.855,39.062,-34.180,52.734
1678714326.089,-5.859,29.785,41.504,-31.250,120.117
1678714326.093,16.602,20.508,30.273,8.789,142.578
1678714326.097,31.738,20.996,25.391,42.480,44.922
1678714326.101,23.438,24.902,32.227,14.648,21.484
1678714326.104,0.488,28.809,46.387,-27.832,30.762
1678714326.108,-11.230,26.367,45.410,-25.391,57.129
1678714326.112,13.672,19.531,26.855,1.465,20.996
1678714326.116,37.598,15.625,22.949,25.879,-13.184
1678714326.120,24.902,20.996,28.809,7.812,44.922
1678714326.124,-1.953,33.203,46.387,-26.367,41.016
1678714326.128,-15.137,27.832,50.293,-35.645,16.113
1678714326.132,10.742,21.973,36.621,-7.812,57.617
1678714326.136,36.621,24.902,39.062,27.832,37.109
1678714326.140,20.508,30.273,41.992,21.484,11.230
1678714326.144,3.418,33.691,47.852,-5.859,-1.465
1678714326.147,-9.766,23.926,50.781,-13.184,29.785
1678714326.151,-5.859,13.184,44.922,4.395,89.844
1678714326.155,34.668,23.926,49.316,40.039,93.262
1678714326.159,44.434,26.855,45.898,42.480,62.500
1678714326.163,19.043,24.414,44.434,9.277,42.969
1678714326.167,-1.465,24.414,44.922,-20.996,-17.578
1678714326.171,18.555,20.020,30.762,5.859,-38.086
1678714326.175,47.852,14.160,26.855,42.969,26.855
1678714326.179,35.645,20.996,34.180,30.762,10.254
1678714326.183,11.719,40.527,46.387,10.254,42.480
1678714326.187,0.488,30.762,53.223,-21.484,61.523
1678714326.190,4.883,7.812,35.156,-12.207,22.949
1678714326.194,23.438,5.859,27.344,23.926,49.805
1678714326.198,27.344,8.789,30.762,35.156,53.711
1678714326.202,5.371,15.625,43.945,3.906,6.348
1678714326.206,-13.672,25.879,56.641,-26.367,42.480
1678714326.210,-0.977,26.367,47.852,-6.836,87.891
1678714326.214,23.438,18.555,34.180,34.668,63.965
1678714326.218,31.250,20.020,44.922,42.969,32.715
1678714326.222,7.324,17.090,61.523,17.090,95.215
1678714326.226,-7.812,17.090,43.457,-19.043,74.219
1678714326.229,2.441,24.414,28.320,-18.555,13.184
1678714326.233,13.184,16.113,28.809,21.484,40.527
1678714326.237,24.414,13.672,28.809,30.273,10.254
1678714326.241,15.137,18.555,39.062,0.000,27.832
1678714326.245,-12.207,20.996,37.598,-34.668,94.727
1678714326.249,-16.602,22.461,38.086,-16.113,121.094
1678714326.253,15.625,27.832,52.734,31.738,74.219
1678714326.257,31.250,21.973,41.016,39.551,57.129
1678714326.261,24.902,18.555,32.715,13.672,69.336
1678714326.265,8.301,24.414,38.086,-20.508,11.230
1678714326.269,2.441,23.438,41.504,-36.133,-64.941
1678714326.272,9.277,16.602,44.434,-7.324,-33.691
1678714326.276,16.602,14.648,29.785,17.578,101.562
1678714326.280,14.648,20.996,27.832,6.348,83.496
1678714326.284,-7.812,29.297,44.922,-9.766,-6.348
1678714326.288,-16.602,24.902,41.016,-28.320,0.000
1678714326.292,4.395,13.184,39.062,-4.883,-1.465
1678714326.296,17.578,12.207,38.574,28.809,1.953
1678714326.300,4.395,19.043,32.715,17.578,15.137
1678714326.304,-3.906,19.531,35.645,-21.973,70.312
1678714326.308,-20.996,19.531,47.363,-44.922,132.324
1678714326.312,-0.977,28.809,55.664,-8.789,73.242
1678714326.315,30.762,17.578,39.551,19.531,0.000
1678714326.319,12.207,13.184,26.367,0.000,46.387
1678714326.323,-10.742,23.438,33.203,-23.438,103.027
1678714326.327,-19.043,22.949,35.645,-25.879,61.523
1678714326.331,-3.906,20.020,32.227,-4.883,47.852
1678714326.335,16.602,12.695,32.715,23.438,15.137
1678714326.339,13.184,10.254,38.086,12.695,-54.688
1678714326.343,-0.977,19.531,45.898,-28.320,-3.418
1678714326.347,-16.113,26.855,42.969,-42.480,28.809
1678714326.351,-6.836,21.973,42.480,-18.555,41.992
1678714326.354,19.043,16.602,36.133,21.484,53.223
1678714326.358,31.738,24.902,30.273,32.715,39.062
1678714326.362,16.113,25.391,36.133,-16.113,16.602
1678714326.366,-13.184,21.484,38.574,-45.898,32.227
1678714326.370,0.977,23.926,29.785,-18.066,43.457
1678714326.374,32.715,17.090,28.320,23.438,-7.812
1678714326.378,39.551,13.672,37.109,26.855,-4.395
1678714326.382,20.996,18.555,38.574,-4.883,63.477
1678714326.386,-3.418,23.926,36.133,-24.414,39.062
1678714326.390,-2.930,18.555,40.527,-19.043,-24.902
1678714326.394,22.461,21.973,43.945,19.531,18.066
1678714326.397,36.621,28.320,27.344,41.992,51.758
1678714326.401,16.113,20.020,21.484,7.812,9.766
1678714326.405,-12.207,21.973,29.297,-32.715,-48.828
1678714326.409,-1.465,20.996,30.762,-17.578,-23.438
1678714326.413,38.574,17.578,28.320,29.785,34.668
1678714326.417,25.879,16.113,31.250,31.250,58.105
1678714326.421,-14.648,15.625,39.062,-3.906,43.945
1678714326.425,-38.574,22.461,45.898,-41.504,21.484
1678714326.429,-46.875,15.137,43.945,-59.082,75.195
1678714326.433,-17.578,8.789,41.992,-32.715,64.453
1678714326.436,-9.766,9.766,44.922,-15.625,15.137
1678714326.440,-40.527,9.766,53.223,-38.086,24.902
1678714326.444,-45.898,12.695,55.176,-63.477,55.176
1678714326.448,-36.621,14.160,50.293,-51.270,47.852
1678714326.452,-25.391,11.230,44.922,-10.742,26.855
1678714326.456,2.930,6.348,40.039,25.391,83.984
1678714326.460,9.277,13.672,49.316,15.137,37.109
1678714326.464,-24.902,16.113,54.688,-35.156,-25.391
1678714326.468,-40.527,13.672,50.781,-43.457,64.453
1678714326.472,-4.395,13.672,53.223,-7.812,92.285
1678714326.476,12.695,0.488,42.969,19.531,83.496
1678714326.479,4.395,-1.953,41.016,7.812,20.508
1678714326.483,-25.879,8.301,49.316,-44.434,-39.551
1678714326.487,-40.527,12.695,46.875,-62.012,21.484
1678714326.491,-11.230,5.859,44.922,-24.414,45.898
1678714326.495,12.695,1.953,38.574,20.020,38.086
1678714326.499,12.695,10.254,44.434,11.230,37.598
1678714326.503,1.465,18.066,57.129,-27.344,18.066
1678714326.507,-15.137,15.137,57.129,-41.016,16.113
1678714326.511,-9.277,8.301,45.410,-14.648,48.340
1678714326.515,17.090,6.836,35.156,19.043,93.262
1678714326.519,18.555,9.277,39.062,13.184,63.965
1678714326.522,-6.836,17.578,48.828,-12.695,-10.254
1678714326.526,-23.438,26.367,46.387,-32.715,59.570
1678714326.530,-4.395,24.902,46.387,-9.766,68.848
1678714326.534,15.625,17.578,40.527,15.137,-16.602
1678714326.538,16.602,19.043,37.109,8.301,-18.555
1678714326.542,-5.859,20.020,49.805,-20.996,-20.508
1678714326.546,-26.855,19.531,58.594,-37.598,11.230
1678714326.550,-12.695,19.043,55.664,-24.414,36.133
1678714326.554,8.789,13.672,46.387,3.418,39.062
1678714326.558,14.160,7.324,41.992,25.879,42.480
1678714326.561,-5.859,12.207,50.293,-0.977,64.453
1678714326.565,-19.531,23.926,52.246,-30.273,38.574
1678714326.569,-13.184,20.020,43.457,-28.320,-4.395
1678714326.573,4.883,12.695,43.457,0.000,55.176
1678714326.577,27.832,17.090,50.293,31.250,32.715
1678714326.581,16.602,28.809,50.293,17.578,-34.180
1678714326.585,-20.508,30.762,48.828,-14.648,-11.230
1678714326.589,-17.578,20.996,46.387,-1.953,62.012
1678714326.593,27.344,12.695,39.062,22.949,107.910
1678714326.597,33.203,9.277,34.668,24.902,69.824
1678714326.601,16.113,17.090,41.504,2.441,23.926
1678714326.604,-5.859,25.391,51.270,-12.207,-24.902
1678714326.608,-14.648,30.762,45.410,0.488,-14.648
1678714326.612,12.207,27.344,41.992,18.555,11.719
1678714326.616,34.180,20.020,42.969,21.973,-7.812
1678714326.620,28.809,23.926,43.945,11.719,-15.137
1678714326.624,-4.883,29.785,44.922,-24.902,18.555
1678714326.628,-13.672,29.297,37.598,-44.434,73.242
1678714326.632,8.301,15.137,32.227,-7.324,81.055
1678714326.636,35.645,12.207,28.809,26.367,56.152
1678714326.640,21.484,20.020,24.902,19.531,48.340
1678714326.644,1.953,20.508,37.109,-2.441,49.805
1678714326.647,-24.414,18.555,50.293,-24.902,-4.883
1678714326.651,-49.805,12.207,50.781,-41.992,54.199
1678714326.655,-41.016,5.859,40.039,-35.156,72.754
1678714326.659,-54.688,10.254,43.457,-41.016,0.488
1678714326.663,-91.797,13.184,59.570,-91.309,-3.906
1678714326.667,-132.324,1.953,60.547,-114.746,24.414
1678714326.671,-147.461,-13.184,56.152,-121.582,50.781
1678714326.675,-134.766,-15.625,55.664,-123.535,48.340
1678714326.679,-158.691,-9.766,61.035,-117.676,61.035
1678714326.683,-194.336,-3.906,69.336,-156.738,50.293
1678714326.686,-212.891,-1.465,69.824,-202.148,51.758
1678714326.690,-215.820,-5.371,63.965,-202.637,58.594
1678714326.694,-200.684,-7.812,59.570,-165.527,61.523
1678714326.698,-196.777,-18.555,73.730,-161.621,33.691
1678714326.702,-208.984,-19.043,84.961,-196.777,44.434
1678714326.706,-222.168,-8.789,74.219,-225.586,57.617
1678714326.710,-204.102,-11.230,65.918,-196.777,117.676
1678714326.714,-156.738,-18.066,70.801,-142.578,111.328
1678714326.718,-165.527,-17.578,83.008,-128.906,32.227
1678714326.722,-183.594,-17.578,82.520,-145.508,52.734
1678714326.726,-173.828,-18.066,76.172,-159.668,32.227
1678714326.729,-148.926,-17.578,75.684,-128.906,-22.461
1678714326.733,-108.887,-22.461,67.383,-69.336,-32.715
1678714326.737,-77.148,-18.555,62.012,-48.828,4.883
1678714326.741,-74.707,-8.301,59.082,-72.754,-2.441
1678714326.745,-82.031,-5.371,59.082,-74.707,73.242
1678714326.749,-62.988,-1.465,61.035,-33.691,81.055
1678714326.753,-22.461,-1.953,55.176,7.812,16.113
1678714326.757,17.578,-5.859,50.781,18.066,7.324
1678714326.761,-3.906,0.977,51.758,2.930,-6.836
1678714326.765,-34.180,7.812,51.758,-17.578,-12.207
1678714326.768,-6.836,8.301,47.363,-7.324,8.301
1678714326.772,17.090,4.883,43.945,33.203,60.547
1678714326.776,37.109,3.906,37.109,52.734,64.941
1678714326.780,37.598,13.184,32.715,51.758,38.086
1678714326.784,4.395,16.602,41.992,22.949,32.715
1678714326.788,0.488,10.742,42.480,6.348,7.324
1678714326.792,20.508,8.789,30.273,39.551,-14.160
1678714326.796,41.016,13.672,30.273,67.871,64.453
1678714326.800,44.434,19.531,38.574,50.293,44.434
1678714326.804,35.645,23.926,41.016,1.953,-14.160
1678714326.808,31.738,26.855,41.992,2.930,45.898
1678714326.811,35.156,25.391,41.504,48.828,-5.371
1678714326.815,61.523,20.020,34.180,84.473,-14.648
1678714326.819,74.219,19.043,34.180,72.754,-2.930
1678714326.823,47.852,25.391,41.016,21.973,-30.273
1678714326.827,25.879,27.832,42.969,18.066,-8.301
1678714326.831,42.480,25.879,43.945,49.316,-6.348
1678714326.835,57.617,23.438,41.016,63.477,70.312
1678714326.839,55.176,20.020,40.039,63.965,30.762
1678714326.843,36.133,19.043,44.434,28.320,-3.418
1678714326.847,26.367,16.602,53.223,4.883,-6.836
1678714326.851,35.645,14.160,49.316,25.879,-26.367
1678714326.854,58.105,18.555,46.387,59.570,18.066
1678714326.858,52.734,27.344,44.922,57.617,20.508
1678714326.862,30.273,33.691,47.852,32.227,-3.906
1678714326.866,19.043,35.156,56.641,9.766,15.625
1678714326.870,32.715,34.180,54.688,3.906,90.820
1678714326.874,62.012,25.879,48.340,41.016,72.266
1678714326.878,73.242,27.344,43.457,57.617,-3.418
1678714326.882,42.480,37.109,48.828,13.672,55.176
1678714326.886,6.836,36.133,58.594,-25.391,101.074
1678714326.890,15.137,31.738,52.246,-10.254,111.328
1678714326.893,41.504,30.762,39.551,31.250,76.172
1678714326.897,49.316,23.438,41.992,46.387,10.742
1678714326.901,30.762,22.461,49.316,18.066,40.527
1678714326.905,8.789,32.227,45.898,-20.996,69.336
1678714326.909,12.207,29.785,44.434,-12.207,53.223
1678714326.913,30.273,26.367,44.434,33.691,44.434
1678714326.917,61.035,32.227,43.945,45.898,22.949
1678714326.921,66.895,37.598,47.852,21.973,5.371
1678714326.925,24.902,28.809,58.105,-6.348,18.066
1678714326.929,10.742,23.438,55.176,1.953,30.762
1678714326.933,39.062,35.645,48.828,35.645,79.590
1678714326.936,51.270,35.156,48.340,56.641,110.352
1678714326.940,48.828,36.133,50.781,34.180,73.242
1678714326.944,11.230,44.922,52.734,-5.859,18.066
1678714326.948,-4.883,31.738,54.688,-2.441,-18.555
1678714326.952,30.762,24.902,55.664,15.137,-22.949
1678714326.956,52.246,37.598,50.781,27.832,16.602
1678714326.960,39.551,50.293,51.270,12.207,19.531
1678714326.964,4.883,54.199,56.152,-37.598,42.480
1678714326.968,-22.949,48.828,54.688,-54.199,26.367
1678714326.972,-8.789,50.781,45.410,-29.785,-2.930
1678714326.976,12.207,49.805,41.016,5.859,44.922
1678714326.979,-20.996,49.316,54.688,-8.789,81.543
1678714326.983,-93.750,53.711,69.824,-97.656,60.059
1678714326.987,-134.766,53.711,80.078,-146.484,34.180
1678714326.991,-143.066,40.039,87.891,-136.719,56.641
1678714326.995,-147.461,34.180,89.355,-125.977,72.754
1678714326.999,-163.574,30.273,95.215,-152.344,14.648
1678714327.003,-217.773,25.391,108.398,-211.426,10.254
1678714327.007,-247.070,20.508,114.258,-225.586,63.965
1678714327.011,-235.352,12.695,116.211,-195.801,6.348
1678714327.015,-195.801,8.301,115.234,-159.180,22.949
1678714327.018,-188.477,12.695,102.539,-161.133,90.332
1678714327.022,-229.004,14.160,105.469,-213.867,13.672
1678714327.026,-241.699,0.488,119.141,-208.496,35.156
1678714327.030,-193.848,-12.207,112.793,-161.621,56.641
1678714327.034,-164.551,-17.090,96.191,-121.582,70.312
1678714327.038,-161.133,-10.742,105.957,-86.426,115.723
1678714327.042,-147.461,-8.301,125.000,-108.887,91.309
1678714327.046,-150.879,-19.531,110.840,-153.809,50.293
1678714327.050,-118.652,-48.340,108.887,-117.188,51.270
1678714327.054,-78.613,-50.781,117.676,-36.621,27.344
1678714327.058,-64.453,-29.785,108.887,2.930,7.812
1678714327.061,-62.988,-19.531,111.328,-18.555,-36.621
1678714327.065,-56.152,-15.137,120.117,-35.645,-72.754
1678714327.069,-21.973,-25.879,114.258,-7.324,-32.227
1678714327.073,14.160,-40.039,100.586,40.039,-13.672
1678714327.077,30.273,-43.457,96.191,78.613,38.086
1678714327.081,20.508,-28.320,90.332,86.426,25.879
1678714327.085,20.508,-29.785,104.492,58.594,12.207
1678714327.089,37.109,-42.969,130.859,59.570,72.266
1678714327.093,73.242,-48.340,125.977,95.703,46.875
1678714327.097,92.773,-39.062,113.281,129.395,4.883
1678714327.100,87.402,-28.320,104.980,129.883,-0.977
1678714327.104,83.008,-42.480,105.957,94.238,22.461
1678714327.108,78.613,-21.484,100.586,104.004,45.410
1678714327.112,106.445,13.184,80.566,150.879,57.617
1678714327.116,129.395,11.719,74.707,172.852,19.531
1678714327.120,114.258,6.348,84.961,174.805,26.367
1678714327.124,99.609,9.277,83.496,158.203,50.781
1678714327.128,110.840,8.789,70.801,141.602,61.035
1678714327.132,124.023,4.395,62.988,167.480,39.551
1678714327.136,136.230,0.977,58.105,175.781,3.906
1678714327.140,133.789,2.930,60.059,148.438,13.184
1678714327.143,124.023,9.766,62.500,131.348,43.945
1678714327.147,113.770,12.207,60.059,115.723,63.477
1678714327.151,118.652,7.812,57.617,134.277,43.457
1678714327.155,146.484,5.859,52.734,166.992,64.941
1678714327.159,149.414,10.254,51.270,164.062,99.609
1678714327.163,119.629,17.090,56.152,134.277,71.289
1678714327.167,103.027,16.113,57.129,117.676,21.973
1678714327.171,122.559,14.648,49.805,133.301,30.273
1678714327.175,156.250,17.578,47.363,177.734,45.410
1678714327.179,151.367,20.020,43.945,179.199,56.152
1678714327.183,129.395,24.414,45.898,114.746,41.992
1678714327.186,108.887,30.273,54.199,87.402,19.531
1678714327.190,120.605,29.785,48.340,120.117,21.484
1678714327.194,147.461,22.461,36.133,152.832,-22.949
1678714327.198,141.113,19.043,37.598,174.805,-17.578
1678714327.202,118.164,25.879,41.016,148.926,50.781
1678714327.206,103.027,38.086,49.805,102.051,26.855
1678714327.210,100.098,39.062,48.340,96.680,7.324
1678714327.214,117.676,35.156,35.156,133.789,41.992
1678714327.218,124.512,36.621,43.457,148.438,38.086
1678714327.222,93.750,37.598,55.664,117.188,59.570
1678714327.225,62.988,38.574,55.664,74.219,110.840
1678714327.229,73.242,34.668,53.223,56.152,23.926
1678714327.233,112.793,29.297,45.410,107.422,-13.672
1678714327.237,107.422,26.855,36.133,127.930,46.387
1678714327.241,74.707,35.156,42.969,82.031,23.926
1678714327.245,69.336,43.945,55.664,41.504,7.812
1678714327.249,78.613,36.133,52.734,48.340,16.602
1678714327.253,86.426,26.855,43.457,90.820,31.250
1678714327.257,84.473,32.227,41.504,101.074,64.941
1678714327.261,77.637,42.969,43.457,67.871,69.336
1678714327.265,60.547,44.434,48.828,22.461,16.113
1678714327.268,54.688,41.504,43.457,25.391,-5.859
1678714327.272,75.195,45.410,38.574,86.914,0.977
1678714327.276,95.703,40.039,29.297,99.609,19.531
1678714327.280,87.402,27.344,28.809,62.988,21.484
1678714327.284,58.594,36.621,51.270,36.133,-44.434
1678714327.288,58.105,42.480,50.781,21.973,-6.836
1678714327.292,73.730,37.598,35.645,55.664,8.789
1678714327.296,87.402,46.387,32.227,106.445,8.301
1678714327.300,78.125,47.852,43.457,87.891,4.395
1678714327.304,41.992,46.387,49.805,37.598,-57.617
1678714327.308,36.133,53.711,49.316,38.086,-35.645
1678714327.311,51.270,48.828,41.016,64.941,-0.488
1678714327.315,69.336,45.410,28.809,72.754,25.391
1678714327.319,66.406,44.434,36.133,43.457,63.965
1678714327.323,34.668,41.504,47.363,18.555,76.660
1678714327.327,28.320,44.922,44.434,35.645,99.121
1678714327.331,40.039,32.227,34.180,46.387,90.820
1678714327.335,58.594,21.973,23.438,56.152,74.219
1678714327.339,60.059,32.227,22.949,60.059,63.965
1678714327.343,28.320,27.832,34.668,35.156,6.836
1678714327.347,18.066,28.809,42.480,8.301,-7.324
1678714327.350,23.926,31.738,32.715,2.930,69.824
1678714327.354,40.039,10.742,26.367,44.922,91.797
1678714327.358,39.062,7.324,28.320,50.781,98.145
1678714327.362,20.996,37.109,35.156,-1.953,84.961
1678714327.366,18.555,41.992,44.922,-22.949,49.805
1678714327.370,26.367,13.672,39.062,4.395,14.648
1678714327.374,49.805,6.348,29.785,46.387,-37.109
1678714327.378,54.688,28.809,29.785,52.246,16.602
1678714327.382,33.203,53.711,39.062,22.461,74.219
1678714327.386,12.207,44.434,43.457,-6.348,101.562
1678714327.390,22.461,34.668,38.086,-1.953,110.840
1678714327.393,47.363,8.301,41.504,46.875,88.379
1678714327.397,46.875,17.578,35.156,58.594,20.508
1678714327.401,24.902,71.289,34.180,23.926,-21.484
1678714327.405,1.465,66.895,37.109,-19.043,27.832
1678714327.409,-5.371,52.734,32.715,-1.953,58.594
1678714327.413,20.508,44.434,30.273,35.156,66.406
1678714327.417,40.527,30.762,26.367,35.156,77.148
1678714327.421,25.391,32.715,31.738,13.184,52.734
1678714327.425,5.859,28.809,45.410,-1.465,4.883
1678714327.429,15.625,31.738,47.363,4.883,-38.574
1678714327.432,38.086,34.180,35.156,36.621,28.809
1678714327.436,49.316,26.367,28.320,38.086,65.430
1678714327.440,25.391,27.344,34.668,-14.648,1.465
1678714327.444,-2.930,22.949,41.016,-45.410,50.293
1678714327.448,-1.953,28.809,34.668,-28.320,46.387
1678714327.452,20.996,48.828,26.367,18.555,0.488
1678714327.456,41.504,44.922,26.367,71.777,-12.207
1678714327.460,24.414,32.227,34.180,55.176,-55.664
1678714327.464,23.438,41.016,35.645,-14.160,33.691
1678714327.468,18.066,48.828,36.621,-32.715,57.129
1678714327.472,-5.371,40.039,41.016,-14.160,40.039
1678714327.475,15.137,28.809,37.598,16.602,61.035
1678714327.479,16.602,23.438,41.992,12.695,75.684
1678714327.483,-12.695,24.902,57.129,-20.020,66.895
1678714327.487,-32.227,22.461,50.293,-29.785,39.062
1678714327.491,-5.371,23.926,39.062,-9.277,29.785
1678714327.495,5.371,10.254,47.852,8.789,68.359
1678714327.499,-10.742,-17.090,53.711,-13.184,53.223
1678714327.503,-22.949,-8.789,65.918,-49.316,21.973
