timestamps,TP9,AF7,AF8,TP10,Right AUX
1678714565.102,135.742,46.875,90.332,574.219,39.551
1678714565.106,52.734,69.336,86.426,377.441,28.809
1678714565.110,-105.957,62.988,50.781,74.219,-18.555
1678714565.114,-130.371,58.594,50.781,65.918,-23.438
1678714565.118,18.066,47.852,67.871,350.098,13.672
1678714565.122,132.324,49.316,71.289,560.547,71.289
1678714565.125,80.566,52.246,66.895,404.297,62.988
1678714565.129,-49.316,47.363,76.172,102.051,21.973
1678714565.133,-97.656,64.453,86.914,51.270,19.531
1678714565.137,8.789,55.176,67.871,282.715,-65.430
1678714565.141,125.000,15.137,55.176,478.027,-65.430
1678714565.145,91.797,23.438,64.453,391.113,-10.254
1678714565.149,-50.293,70.801,71.777,112.305,-33.691
1678714565.153,-118.652,66.895,62.012,5.371,-66.406
1678714565.157,-17.090,41.504,57.129,235.840,-72.266
1678714565.161,111.816,29.785,55.176,488.770,-14.648
1678714565.165,105.469,22.949,68.848,444.336,39.062
1678714565.168,-44.434,42.480,83.008,164.551,42.480
1678714565.172,-148.438,58.105,79.590,24.414,-9.277
1678714565.176,-55.664,50.293,77.148,223.145,-36.621
1678714565.180,99.121,33.203,70.801,495.117,0.000
1678714565.184,108.398,26.855,61.523,474.121,62.012
1678714565.188,-11.230,47.363,69.824,211.914,79.590
1678714565.192,-92.773,56.641,83.008,62.500,9.766
1678714565.196,-25.879,50.781,74.707,204.590,16.602
1678714565.200,104.980,47.852,59.082,472.656,32.715
1678714565.204,130.859,41.992,54.688,498.047,56.152
1678714565.207,5.371,37.109,58.594,236.328,67.383
1678714565.211,-105.469,44.922,60.059,44.434,22.461
1678714565.215,-31.738,43.945,57.129,167.969,-4.395
1678714565.219,120.605,41.504,58.594,447.754,10.742
1678714565.223,134.766,44.434,66.406,534.180,59.082
1678714565.227,0.000,37.109,68.359,291.016,-2.930
1678714565.231,-95.703,34.180,56.641,52.734,-23.926
1678714565.235,-45.898,41.016,51.758,148.438,-11.230
1678714565.239,93.750,42.480,55.176,418.457,-21.973
1678714565.243,157.715,38.086,51.270,513.184,41.504
1678714565.247,50.293,33.203,42.480,288.574,61.035
1678714565.250,-76.660,32.715,39.551,30.762,17.090
1678714565.254,-64.941,39.062,44.922,84.961,-34.668
1678714565.258,82.031,40.039,49.316,361.816,34.180
1678714565.262,172.852,27.832,47.852,501.953,92.773
1678714565.266,89.844,38.574,49.316,330.078,43.945
1678714565.270,-41.504,52.734,47.852,69.336,-5.859
1678714565.274,-54.199,56.152,51.758,71.289,-48.828
1678714565.278,70.801,52.734,53.711,325.684,-43.945
1678714565.282,169.922,38.086,43.457,506.836,34.668
1678714565.286,106.445,31.738,47.852,346.191,90.332
1678714565.290,-24.414,31.250,58.594,77.148,51.758
1678714565.293,-43.945,29.297,61.523,49.805,-12.207
1678714565.297,72.754,38.086,53.223,263.672,-10.742
1678714565.301,174.805,52.734,47.852,479.980,58.105
1678714565.305,116.699,52.734,49.805,364.258,117.676
1678714565.309,-28.809,40.527,58.594,92.285,75.195
1678714565.313,-77.148,36.621,62.500,28.320,-11.230
1678714565.317,27.344,32.715,56.152,230.469,-28.320
1678714565.321,155.273,27.344,52.734,448.730,11.719
1678714565.325,142.578,24.902,63.477,385.254,88.379
1678714565.329,11.719,23.438,76.172,130.371,58.594
1678714565.332,-58.594,25.879,68.848,11.719,-17.090
1678714565.336,36.621,35.645,65.430,190.918,-44.434
1678714565.340,149.902,37.598,65.430,425.293,25.391
1678714565.344,133.789,33.203,57.617,379.883,92.773
1678714565.348,23.438,43.457,58.105,122.070,-3.906
1678714565.352,-53.223,52.734,57.617,-1.953,-56.641
1678714565.356,13.184,51.758,59.570,166.504,45.410
1678714565.360,133.789,45.410,59.570,412.598,100.586
1678714565.364,148.926,29.785,55.664,424.316,24.414
1678714565.368,21.973,30.273,49.805,186.035,28.809
1678714565.372,-66.406,55.176,52.734,14.648,6.836
1678714565.375,-14.648,54.688,59.082,118.164,-51.758
1678714565.379,113.770,42.480,56.152,371.582,3.418
1678714565.383,151.367,40.527,52.246,429.199,47.852
1678714565.387,32.715,41.992,53.223,203.613,8.789
1678714565.391,-79.590,41.016,61.035,24.902,5.371
1678714565.395,-47.852,42.480,60.547,103.516,1.953
1678714565.399,84.961,41.016,55.176,357.910,-32.715
1678714565.403,140.625,30.273,58.594,455.566,39.551
1678714565.407,46.387,38.086,58.105,259.277,81.055
1678714565.411,-64.453,61.523,60.059,41.504,-32.715
1678714565.415,-45.898,60.547,65.918,70.801,5.859
1678714565.418,71.777,50.293,64.453,324.219,59.082
1678714565.422,126.953,46.387,51.758,438.965,46.387
1678714565.426,49.316,45.898,51.270,266.602,30.273
1678714565.430,-69.824,49.805,61.523,51.270,12.207
1678714565.434,-78.125,48.828,59.570,60.059,29.297
1678714565.438,34.180,56.152,41.504,273.438,33.691
1678714565.442,125.488,57.617,38.086,418.457,59.082
1678714565.446,63.477,62.988,55.664,304.688,102.539
1678714565.450,-75.684,60.547,66.895,67.383,80.566
1678714565.454,-103.516,55.176,61.523,19.043,42.969
1678714565.457,1.465,48.340,56.641,227.539,82.031
1678714565.461,104.004,39.062,61.035,419.922,82.031
1678714565.465,68.848,50.781,72.754,347.168,76.660
1678714565.469,-69.824,54.199,72.266,106.934,7.324
1678714565.473,-131.836,53.223,60.547,20.996,-5.859
1678714565.477,-33.203,55.176,64.941,214.355,50.293
1678714565.481,90.820,36.621,62.500,409.668,55.176
1678714565.485,72.754,42.480,68.848,347.656,19.043
1678714565.489,-60.059,59.082,79.102,115.723,10.742
1678714565.493,-129.395,57.617,80.078,-3.418,15.625
1678714565.497,-45.898,55.664,75.195,151.855,-42.480
1678714565.500,72.754,54.688,62.988,374.023,28.809
1678714565.504,79.102,56.152,74.707,376.953,86.426
1678714565.508,-51.270,59.082,79.590,140.137,14.160
1678714565.512,-148.438,62.988,66.406,-19.043,2.441
1678714565.516,-73.730,60.059,64.453,119.141,-0.488
1678714565.520,58.105,52.246,60.547,340.820,57.617
1678714565.524,73.242,48.828,62.012,367.676,102.051
1678714565.528,-40.039,47.363,65.918,158.691,59.082
1678714565.532,-127.441,44.922,70.312,-14.160,33.203
1678714565.536,-77.637,33.691,75.684,95.215,1.465
1678714565.539,49.805,34.180,73.730,335.938,23.438
1678714565.543,88.379,54.199,67.871,386.230,134.277
1678714565.547,-22.461,61.523,67.871,189.941,140.137
1678714565.551,-122.559,67.871,75.684,-20.020,84.473
1678714565.555,-78.125,62.500,77.148,29.785,26.855
1678714565.559,44.922,52.734,77.148,290.527,41.504
1678714565.563,92.773,48.828,83.496,395.508,107.910
1678714565.567,-6.348,42.480,78.125,205.078,44.922
1678714565.571,-106.445,47.363,71.289,6.836,-50.781
1678714565.575,-78.125,54.199,73.730,46.387,-7.812
1678714565.579,15.137,56.152,71.289,243.652,62.988
1678714565.582,72.754,53.223,65.918,352.539,95.215
1678714565.586,-6.836,50.781,65.918,189.941,53.711
1678714565.590,-152.832,55.176,59.570,-59.570,-8.301
1678714565.594,-163.574,55.664,58.594,-66.895,-4.395
1678714565.598,-33.691,53.223,64.941,155.273,-18.555
1678714565.602,56.641,52.734,61.523,308.105,105.469
1678714565.606,-3.418,57.129,54.688,185.547,145.020
1678714565.610,-127.441,58.105,55.176,-40.039,-20.020
1678714565.614,-148.438,53.711,62.500,-73.730,-72.266
1678714565.618,-29.297,48.828,61.523,126.465,15.625
1678714565.622,88.867,56.641,65.918,313.477,103.516
1678714565.625,44.922,56.641,76.660,225.098,81.543
1678714565.629,-101.074,46.875,73.730,-10.254,27.344
1678714565.633,-144.531,46.387,65.918,-72.754,0.000
1678714565.637,-33.691,37.109,57.617,110.840,-3.906
1678714565.641,94.727,26.367,57.617,317.383,89.844
1678714565.645,99.121,51.758,61.523,291.992,70.801
1678714565.649,-30.273,63.965,64.941,55.664,-18.066
1678714565.653,-112.305,45.410,64.941,-56.641,13.672
1678714565.657,-18.066,60.059,69.336,107.422,3.906
1678714565.661,113.770,74.219,76.660,327.148,53.223
1678714565.664,103.027,57.617,64.453,299.805,80.078
1678714565.668,-26.855,54.199,59.570,60.059,-11.230
1678714565.672,-119.141,51.758,57.129,-82.031,-51.270
1678714565.676,-50.781,50.293,63.965,49.805,-29.785
1678714565.680,94.238,51.758,78.125,280.762,32.227
1678714565.684,120.117,48.828,77.148,314.941,88.379
1678714565.688,-2.441,43.457,63.477,105.469,53.223
1678714565.692,-98.145,44.434,58.594,-69.336,-25.391
1678714565.696,-39.551,54.688,76.172,34.668,-92.285
1678714565.700,90.820,51.758,76.660,269.531,-45.898
1678714565.704,111.816,43.945,65.918,315.430,102.051
1678714565.707,4.395,48.340,64.941,122.559,57.129
1678714565.711,-84.473,59.570,65.430,-41.504,-34.668
1678714565.715,-41.016,59.082,67.383,21.973,-45.898
1678714565.719,71.289,41.504,62.012,238.770,14.160
1678714565.723,110.840,19.043,58.105,330.566,121.094
1678714565.727,20.020,26.367,64.941,151.367,76.172
1678714565.731,-92.773,55.664,77.148,-44.434,-22.461
1678714565.735,-74.219,56.641,76.660,-0.977,-65.918
1678714565.739,62.012,43.945,57.129,210.449,-14.160
1678714565.743,133.301,43.945,54.199,323.730,92.285
1678714565.747,46.387,49.316,62.012,174.316,59.570
1678714565.750,-63.965,52.246,78.613,-31.738,-11.230
1678714565.754,-66.406,46.387,79.102,-35.645,-56.152
1678714565.758,49.316,59.082,67.383,167.969,-76.172
1678714565.762,140.137,72.754,67.871,319.336,63.965
1678714565.766,82.031,62.988,64.453,204.102,135.742
1678714565.770,-47.852,60.547,66.895,-10.742,19.043
1678714565.774,-82.031,62.500,77.637,-37.109,-92.773
1678714565.778,20.508,51.270,67.871,146.973,-52.246
1678714565.782,115.234,47.852,59.082,318.848,73.242
1678714565.786,75.684,54.199,69.824,251.465,84.473
1678714565.789,-47.852,67.383,76.660,19.531,7.324
1678714565.793,-100.586,65.430,70.801,-74.707,0.977
1678714565.797,-6.836,54.199,57.617,89.355,16.602
1678714565.801,111.816,48.828,61.035,288.086,75.684
1678714565.805,100.586,51.270,62.988,245.117,119.141
1678714565.809,-15.137,66.895,54.688,23.926,5.859
1678714565.813,-90.820,67.871,58.105,-83.496,-57.617
1678714565.817,-25.879,50.781,61.035,61.035,-9.766
1678714565.821,102.051,43.457,52.734,280.273,52.734
1678714565.825,106.934,47.852,56.152,268.066,122.070
1678714565.829,-21.484,59.570,76.172,49.316,7.324
1678714565.832,-105.469,66.406,79.590,-76.172,-125.000
1678714565.836,-28.320,56.641,64.941,43.945,-70.312
1678714565.840,91.797,42.480,54.688,248.535,41.504
1678714565.844,95.215,49.316,58.594,265.137,134.766
1678714565.848,-14.160,58.105,70.312,66.895,30.762
1678714565.852,-111.816,53.711,69.336,-90.332,-13.672
1678714565.856,-68.848,48.828,62.012,-3.906,30.762
1678714565.860,59.082,48.828,56.641,212.402,68.848
1678714565.864,105.957,51.758,58.594,271.484,188.965
1678714565.868,-5.859,52.734,66.406,68.848,95.215
1678714565.871,-135.254,54.199,67.871,-122.559,-37.109
1678714565.875,-123.535,51.758,60.059,-70.801,-40.039
1678714565.879,-1.953,48.828,56.641,153.809,2.930
1678714565.883,57.129,47.852,60.547,250.977,88.867
1678714565.887,-49.805,51.270,66.406,63.477,79.590
1678714565.891,-182.129,56.641,67.383,-145.996,-5.371
1678714565.895,-167.969,58.594,54.199,-125.000,-18.066
1678714565.899,-52.734,56.641,51.758,64.941,19.531
1678714565.903,6.348,58.594,59.082,175.781,145.020
1678714565.907,-76.172,63.477,62.500,19.043,172.852
1678714565.911,-212.402,68.848,58.105,-211.914,-3.906
1678714565.914,-240.234,68.848,50.781,-224.609,-60.547
1678714565.918,-154.785,63.965,45.410,-54.199,-25.391
1678714565.922,-75.684,65.918,38.086,80.566,131.348
1678714565.926,-136.719,68.848,43.457,-29.297,164.551
1678714565.930,-279.785,72.266,52.246,-267.090,-10.742
1678714565.934,-300.293,76.660,40.527,-306.152,-50.293
1678714565.938,-182.617,74.219,36.621,-113.281,-24.414
1678714565.942,-70.312,69.824,44.434,60.547,97.168
1678714565.946,-102.051,77.637,48.828,-1.953,164.551
1678714565.950,-243.164,83.008,59.082,-219.238,11.719
1678714565.954,-291.016,72.266,60.059,-285.645,-42.480
1678714565.957,-177.734,65.430,50.293,-94.238,-17.090
1678714565.961,-47.852,64.453,51.758,121.094,104.004
1678714565.965,-65.430,62.012,58.594,85.938,186.035
1678714565.969,-181.641,66.406,62.988,-123.535,44.922
1678714565.973,-210.449,77.148,58.594,-211.426,-59.570
1678714565.977,-116.211,68.359,53.223,-62.500,-107.422
1678714565.981,-2.930,56.152,57.129,156.738,65.430
1678714565.985,9.277,54.199,62.500,161.621,228.516
1678714565.989,-83.008,59.082,61.523,-37.598,71.777
1678714565.993,-141.602,61.523,56.641,-147.949,-18.555
1678714565.996,-53.711,55.176,59.570,10.742,-1.953
1678714566.000,85.449,55.176,57.617,240.234,83.984
1678714566.004,113.770,62.988,55.176,253.906,215.820
1678714566.008,17.578,67.383,65.430,62.500,59.570
1678714566.012,-55.664,66.895,68.359,-76.660,-107.422
1678714566.016,2.930,59.570,65.918,40.039,-61.523
1678714566.020,127.441,53.711,61.523,267.090,54.688
1678714566.024,169.434,58.105,57.129,317.383,209.961
1678714566.028,72.754,59.570,64.453,126.953,169.922
1678714566.032,-34.668,52.734,71.777,-39.551,22.461
1678714566.036,4.395,54.199,70.312,41.992,-20.508
1678714566.039,148.438,50.293,62.500,259.766,48.828
1678714566.043,202.637,40.039,62.500,348.633,222.168
1678714566.047,95.703,39.062,74.219,188.965,155.762
1678714566.051,-19.531,41.016,76.172,-7.324,-59.570
1678714566.055,6.348,41.016,73.730,34.668,-101.562
1678714566.059,136.230,44.922,79.590,261.719,-6.836
1678714566.063,199.219,48.828,74.219,373.535,194.824
1678714566.067,114.258,43.945,64.453,207.520,160.645
1678714566.071,-14.160,40.527,68.848,-4.395,-8.789
1678714566.075,-21.973,47.363,75.195,4.883,-50.293
1678714566.079,110.352,46.875,71.777,206.055,-31.738
1678714566.082,197.754,41.992,72.754,350.098,196.777
1678714566.086,127.441,47.363,80.566,244.629,258.789
1678714566.090,-5.859,48.828,76.172,22.949,-2.930
1678714566.094,-34.180,40.039,66.406,-20.996,-106.934
1678714566.098,68.359,31.738,65.430,166.504,-27.344
1678714566.102,169.434,35.645,76.172,338.379,188.965
1678714566.106,141.602,44.922,88.867,262.207,262.207
1678714566.110,7.324,54.688,85.938,27.344,46.387
1678714566.114,-44.922,51.758,84.473,-33.691,-115.723
1678714566.118,54.199,41.992,79.102,133.301,-87.402
1678714566.121,173.828,48.340,71.289,310.059,162.109
1678714566.125,145.020,45.410,73.242,272.949,269.531
1678714566.129,4.395,45.410,76.660,37.598,55.664
1678714566.133,-63.965,49.805,83.008,-65.918,-121.094
1678714566.137,19.043,46.875,81.055,93.750,-83.984
1678714566.141,141.602,42.480,74.707,283.691,135.742
1678714566.145,138.184,37.598,72.754,260.254,287.598
1678714566.149,10.254,38.086,80.078,50.781,110.352
1678714566.153,-68.359,42.969,82.520,-69.336,-91.797
1678714566.157,4.883,47.363,74.707,47.363,-144.043
1678714566.161,133.789,43.945,71.777,261.230,57.617
1678714566.164,143.066,45.410,70.801,294.434,292.480
1678714566.168,12.207,51.758,77.148,76.660,135.742
1678714566.172,-79.102,52.734,78.125,-84.473,-91.309
1678714566.176,-24.414,52.246,75.684,24.902,-136.230
1678714566.180,106.934,53.223,81.055,242.676,46.875
1678714566.184,149.414,49.316,87.402,291.504,330.566
1678714566.188,50.293,46.387,77.637,105.957,175.293
1678714566.192,-54.199,60.059,71.289,-69.336,-62.988
1678714566.196,-28.809,51.270,68.848,-12.695,-106.445
1678714566.200,99.609,46.875,59.082,202.637,-1.465
1678714566.203,154.297,56.152,65.430,290.527,262.207
1678714566.207,67.383,57.129,80.566,125.488,177.246
1678714566.211,-51.758,60.059,84.473,-63.477,-86.914
1678714566.215,-44.434,67.383,80.566,-36.621,-180.176
1678714566.219,72.754,60.547,75.195,175.293,-32.227
1678714566.223,144.043,52.246,76.660,306.641,287.109
1678714566.227,64.453,55.176,83.984,160.645,263.672
1678714566.231,-61.523,57.129,83.984,-49.316,-0.977
1678714566.235,-58.105,53.711,81.055,-45.898,-158.203
1678714566.239,55.176,43.945,65.430,150.879,-92.773
1678714566.243,146.484,48.828,57.129,304.199,200.195
1678714566.246,79.590,55.664,66.406,188.965,238.770
1678714566.250,-60.059,55.664,73.730,-31.250,-27.832
1678714566.254,-74.219,63.965,72.266,-66.895,-159.668
1678714566.258,33.203,63.965,62.012,108.398,-107.422
1678714566.262,139.648,59.570,62.012,277.832,169.922
1678714566.266,105.957,72.266,67.871,200.684,252.441
1678714566.270,-26.367,78.125,73.242,-11.230,-26.855
1678714566.274,-70.801,62.500,72.754,-77.637,-148.926
1678714566.278,17.578,46.875,73.730,84.961,-99.121
1678714566.282,134.766,51.270,76.172,282.227,146.484
1678714566.286,123.535,68.848,64.453,238.770,267.090
1678714566.289,-5.371,69.824,57.617,18.555,41.504
1678714566.293,-64.941,64.453,70.312,-73.242,-155.762
1678714566.297,30.762,71.289,55.664,68.359,-171.387
1678714566.301,158.691,69.824,50.293,274.414,92.285
1678714566.305,145.996,63.477,60.547,254.395,282.227
1678714566.309,13.672,62.988,64.453,41.016,64.453
1678714566.313,-65.918,65.430,58.594,-71.777,-140.625
1678714566.317,-8.301,71.289,55.664,23.926,-104.980
1678714566.321,110.840,69.824,72.754,225.098,104.492
1678714566.325,124.023,57.129,75.684,249.512,287.598
1678714566.328,-1.953,46.387,63.477,36.621,153.320
1678714566.332,-90.332,58.105,66.406,-117.676,-75.195
1678714566.336,-24.414,62.988,73.242,-9.766,-202.148
1678714566.340,104.004,53.711,63.477,214.844,2.930
1678714566.344,141.602,56.152,65.430,270.508,300.293
1678714566.348,26.367,60.547,78.125,91.309,146.973
1678714566.352,-86.914,51.270,73.730,-92.285,-109.863
1678714566.356,-45.410,45.410,66.895,-44.922,-131.836
1678714566.360,95.703,53.223,74.707,182.617,9.766
1678714566.364,146.973,60.059,78.125,267.578,254.395
1678714566.368,40.527,61.523,79.590,95.703,189.941
1678714566.371,-72.754,57.617,87.891,-76.660,-88.379
1678714566.375,-62.988,49.805,78.613,-43.457,-212.402
1678714566.379,61.035,56.152,70.312,154.785,-66.895
1678714566.383,135.742,57.617,75.195,258.789,233.398
1678714566.387,58.105,53.711,74.707,125.488,162.109
1678714566.391,-67.871,60.059,71.777,-70.312,-58.105
1678714566.395,-73.730,53.223,75.195,-76.172,-139.160
1678714566.399,48.828,42.480,73.242,123.047,-95.703
1678714566.403,131.348,41.992,64.453,249.512,211.914
1678714566.407,70.801,46.875,68.848,132.812,216.797
1678714566.411,-54.199,53.711,80.078,-64.453,-53.711
1678714566.414,-81.543,53.711,81.055,-90.332,-113.770
1678714566.418,30.762,48.828,76.660,91.797,-67.383
1678714566.422,138.672,44.922,77.148,247.559,160.156
1678714566.426,89.844,41.504,76.660,169.434,232.910
1678714566.430,-45.898,51.758,83.008,-29.297,-50.781
1678714566.434,-85.938,52.246,81.055,-87.891,-176.270
1678714566.438,20.508,45.898,67.383,71.777,-129.395
1678714566.442,127.441,56.152,73.242,231.445,76.172
1678714566.446,83.496,53.223,70.801,172.852,211.914
1678714566.450,-54.199,57.129,71.289,-33.203,15.137
1678714566.453,-107.910,62.012,73.730,-132.812,-140.137
1678714566.457,-15.625,50.293,67.383,15.137,-175.781
1678714566.461,109.375,48.828,58.105,211.914,60.547
1678714566.465,117.188,58.594,63.965,204.590,275.879
1678714566.469,-14.648,56.641,74.707,6.836,46.875
1678714566.473,-121.094,46.387,67.383,-118.164,-132.812
1678714566.477,-59.082,43.457,59.570,-10.742,-92.285
1678714566.481,79.102,51.758,67.871,188.965,53.711
1678714566.485,96.680,49.316,73.730,206.543,212.891
1678714566.489,-15.625,43.945,62.500,9.277,73.242
1678714566.493,-103.516,51.758,59.570,-115.234,-145.508
1678714566.496,-55.176,49.316,66.406,-16.113,-127.441
1678714566.500,71.777,44.922,64.453,171.387,94.727
1678714566.504,106.934,45.410,60.547,215.820,285.645
1678714566.508,-0.977,49.316,72.754,36.133,137.695
1678714566.512,-97.656,52.246,83.496,-139.160,-108.887
1678714566.516,-51.270,57.129,91.309,-64.453,-113.281
1678714566.520,75.195,59.082,85.449,158.203,8.789
1678714566.524,124.023,60.059,76.660,242.188,215.820
1678714566.528,32.715,62.988,83.496,79.102,145.996
1678714566.532,-83.496,62.988,77.637,-110.352,-85.449
1678714566.535,-78.613,53.711,71.777,-79.590,-185.059
1678714566.539,44.434,44.922,75.195,139.160,-19.043
1678714566.543,122.559,40.527,77.148,260.254,224.121
1678714566.547,55.176,42.480,84.473,127.441,152.832
1678714566.551,-60.547,61.523,85.449,-70.801,-98.633
1678714566.555,-75.684,70.312,81.543,-81.543,-190.430
1678714566.559,39.062,61.035,79.102,105.469,-68.848
1678714566.563,122.070,57.129,76.660,241.211,190.918
1678714566.567,48.828,53.711,79.590,132.812,221.191
1678714566.571,-85.449,50.781,75.195,-88.379,-28.809
1678714566.575,-104.492,53.711,76.172,-111.816,-170.410
1678714566.578,17.090,62.012,84.961,85.449,-83.008
1678714566.582,116.211,59.082,78.613,240.723,195.312
1678714566.586,73.730,59.082,83.496,166.992,239.258
1678714566.590,-44.434,67.871,84.961,-49.316,-3.906
1678714566.594,-92.285,55.176,75.684,-110.840,-134.766
1678714566.598,-9.277,40.039,76.172,43.457,-110.840
1678714566.602,102.051,47.363,74.707,211.914,110.352
1678714566.606,84.473,60.547,72.754,165.039,240.723
1678714566.610,-35.645,60.059,69.824,-49.805,48.828
1678714566.614,-83.496,47.852,63.477,-130.371,-135.254
1678714566.618,7.812,55.176,67.383,20.020,-175.781
1678714566.621,118.652,67.871,59.082,209.473,85.938
1678714566.625,108.887,67.871,58.594,194.824,278.320
1678714566.629,-2.441,59.570,74.707,1.953,60.059
1678714566.633,-72.266,62.500,84.961,-104.004,-105.469
1678714566.637,-13.184,65.430,85.938,3.418,-125.977
1678714566.641,109.375,55.664,65.430,204.590,68.848
1678714566.645,121.094,50.293,66.406,231.445,312.500
1678714566.649,-2.930,54.199,71.289,27.832,132.812
1678714566.653,-92.773,63.477,74.219,-116.211,-76.172
1678714566.657,-40.527,55.176,77.148,-23.926,-124.023
1678714566.660,92.285,41.992,67.383,187.012,42.969
1678714566.664,131.348,37.598,69.824,245.117,262.695
1678714566.668,7.324,44.922,74.707,58.594,80.566
1678714566.672,-119.141,56.152,73.242,-124.023,-110.840
1678714566.676,-76.172,49.805,70.312,-56.641,-125.977
1678714566.680,57.129,45.898,64.453,155.273,2.930
1678714566.684,105.957,50.293,56.641,229.004,258.301
1678714566.688,29.297,64.453,67.871,80.566,184.082
1678714566.692,-76.172,67.383,74.707,-92.285,-66.406
1678714566.696,-74.219,51.270,64.941,-68.359,-147.461
1678714566.700,49.316,45.410,56.152,130.859,-17.578
1678714566.703,126.465,45.898,51.758,241.699,228.516
1678714566.707,54.688,52.734,61.035,108.887,194.824
1678714566.711,-65.430,57.129,65.918,-83.496,-70.801
1678714566.715,-62.988,60.547,64.941,-82.520,-163.574
1678714566.719,66.895,60.547,54.199,110.352,-41.992
1678714566.723,152.832,51.270,49.316,250.488,185.059
1678714566.727,80.078,48.340,53.711,149.414,164.062
1678714566.731,-57.129,56.152,56.152,-49.805,-37.598
1678714566.735,-87.891,59.082,61.035,-84.961,-100.586
1678714566.739,23.438,57.617,63.477,94.238,-96.191
1678714566.743,115.723,42.480,51.270,241.699,119.141
1678714566.746,73.242,39.551,50.293,163.086,223.633
1678714566.750,-35.645,57.129,55.176,-33.691,-11.230
1678714566.754,-88.867,62.988,53.711,-109.863,-150.391
1678714566.758,5.859,60.547,51.758,49.316,-100.098
1678714566.762,122.070,54.688,51.270,229.980,142.578
1678714566.766,95.215,47.852,55.664,184.570,260.254
1678714566.770,-26.367,54.688,62.500,-21.484,25.879
1678714566.774,-84.961,62.012,68.848,-119.141,-180.664
1678714566.778,5.371,60.547,63.965,26.855,-187.988
1678714566.782,124.023,55.664,58.594,226.074,50.781
1678714566.785,101.562,40.039,58.105,204.102,250.488
1678714566.789,-33.203,38.574,63.477,-0.488,33.203
1678714566.793,-98.633,50.293,68.848,-108.887,-154.785
1678714566.797,-3.418,58.594,68.359,12.695,-120.605
1678714566.801,96.191,65.430,59.570,182.617,31.250
1678714566.805,82.520,61.523,59.082,176.758,202.637
1678714566.809,-29.785,59.082,66.406,-1.953,80.566
1678714566.813,-125.977,53.711,51.270,-146.973,-90.332
1678714566.817,-72.754,37.598,42.480,-54.688,-109.375
1678714566.821,47.363,34.668,49.316,162.598,29.785
1678714566.825,83.984,48.828,58.105,208.496,225.586
1678714566.828,-17.578,61.523,59.082,16.602,64.453
1678714566.832,-129.395,60.547,53.223,-152.344,-131.836
1678714566.836,-95.215,51.270,49.316,-80.078,-153.809
1678714566.840,44.434,47.363,42.969,136.230,-18.555
1678714566.844,111.328,54.688,42.480,216.797,216.309
1678714566.848,12.207,51.270,45.898,56.152,113.281
1678714566.852,-95.703,44.922,53.223,-110.352,-74.707
1678714566.856,-64.453,57.129,57.617,-65.430,-113.281
1678714566.860,61.035,61.523,52.246,139.648,-47.852
1678714566.864,132.324,55.176,55.176,251.953,189.941
1678714566.867,55.176,53.223,51.270,116.699,155.762
1678714566.871,-66.406,56.152,42.480,-81.543,-61.035
1678714566.875,-71.777,59.082,48.828,-83.008,-117.188
1678714566.879,38.574,51.758,55.176,99.609,-62.988
1678714566.883,120.117,52.246,55.176,235.352,153.809
1678714566.887,57.617,53.223,55.176,128.906,174.805
1678714566.891,-66.895,45.410,60.059,-76.660,-39.062
1678714566.895,-88.867,43.457,55.664,-99.609,-151.367
1678714566.899,21.484,46.387,55.664,91.309,-100.098
1678714566.903,106.934,42.969,52.246,250.000,125.000
1678714566.907,63.965,48.828,43.945,153.320,158.203
1678714566.910,-54.199,53.711,47.363,-76.660,-28.809
1678714566.914,-88.379,51.270,51.758,-131.836,-114.258
1678714566.918,5.859,46.875,52.246,40.527,-124.512
1678714566.922,101.074,37.598,47.363,205.078,66.895
1678714566.926,75.195,42.480,50.781,151.367,203.613
1678714566.930,-43.457,59.082,60.547,-41.016,35.156
1678714566.934,-99.609,57.129,57.129,-119.629,-116.211
1678714566.938,-11.719,43.945,43.457,20.020,-119.629
1678714566.942,106.934,44.434,39.062,201.660,83.496
1678714566.946,95.215,53.711,42.969,190.430,214.844
1678714566.950,-21.484,60.547,50.293,-5.859,47.852
1678714566.953,-95.703,58.594,54.199,-119.141,-114.746
1678714566.957,-31.250,50.293,49.316,-3.906,-144.531
1678714566.961,89.355,45.898,42.480,189.941,-10.742
1678714566.965,96.191,46.875,42.480,203.125,145.996
1678714566.969,-11.719,47.363,52.246,13.184,79.590
1678714566.973,-93.750,52.734,53.223,-109.863,-67.871
1678714566.977,-51.270,54.199,48.828,-13.672,-136.719
1678714566.981,70.801,51.270,41.504,174.316,-1.465
1678714566.985,120.605,51.758,40.527,218.750,185.547
1678714566.989,20.020,51.270,46.387,45.898,109.863
1678714566.992,-87.402,54.199,50.293,-114.746,-72.754
1678714566.996,-46.875,54.199,54.199,-54.688,-151.367
1678714567.000,85.938,46.875,50.293,147.461,-21.484
1678714567.004,141.113,52.246,50.293,225.098,180.176
1678714567.008,41.016,64.941,61.035,72.266,121.094
1678714567.012,-87.891,54.688,60.059,-104.980,-92.773
1678714567.016,-70.312,48.828,56.641,-63.965,-111.328
1678714567.020,58.105,54.199,52.246,140.625,-19.531
1678714567.024,132.324,50.293,55.664,248.535,139.648
1678714567.028,55.664,56.152,62.012,111.816,141.113
1678714567.032,-68.848,58.594,61.523,-94.238,-65.430
1678714567.035,-62.012,61.523,64.941,-83.008,-143.066
1678714567.039,45.410,58.105,53.711,115.234,-66.406
1678714567.043,113.281,41.016,47.363,242.188,151.855
1678714567.047,53.223,39.062,61.523,139.160,175.293
1678714567.051,-71.777,48.828,71.777,-68.359,-24.414
1678714567.055,-95.215,55.664,67.871,-104.492,-74.707
1678714567.059,12.695,50.781,58.105,67.871,-50.781
1678714567.063,108.398,46.387,50.781,216.797,134.277
1678714567.067,67.871,50.293,57.129,147.461,198.730
1678714567.071,-53.711,54.199,64.453,-51.270,4.883
1678714567.075,-98.633,53.223,59.082,-105.469,-65.430
1678714567.078,4.883,47.852,57.617,54.688,-42.480
1678714567.082,117.676,42.969,54.688,216.797,90.332
1678714567.086,81.543,41.992,52.246,158.691,193.848
1678714567.090,-48.340,40.039,59.570,-54.199,69.336
1678714567.094,-96.191,53.223,62.500,-122.070,-50.293
1678714567.098,-0.977,50.781,54.199,27.832,-96.191
1678714567.102,113.770,38.574,51.270,201.172,30.762
1678714567.106,92.773,41.016,53.711,171.875,203.125
1678714567.110,-42.969,41.992,47.852,-40.039,28.320
1678714567.114,-117.676,51.270,47.363,-145.508,-94.727
1678714567.117,-44.922,41.016,49.316,-20.020,-59.082
1678714567.121,75.195,32.227,45.898,174.316,54.688
1678714567.125,90.820,43.945,46.387,186.523,184.082
1678714567.129,-23.926,46.387,50.293,-6.836,69.336
1678714567.133,-117.676,41.504,51.270,-143.555,-62.988
1678714567.137,-50.781,49.805,56.152,-20.996,-132.324
1678714567.141,80.566,56.152,58.105,189.453,-45.410
1678714567.145,95.703,40.527,44.434,206.055,122.559
1678714567.149,-8.301,38.574,42.969,27.344,21.973
1678714567.153,-98.145,49.316,47.852,-116.699,-83.008
1678714567.157,-57.129,46.875,44.434,-48.828,-62.988
1678714567.160,75.684,45.410,51.758,154.297,6.348
1678714567.164,121.582,42.480,55.176,229.004,193.848
1678714567.168,11.719,34.668,45.898,65.430,130.371
1678714567.172,-109.375,37.109,45.410,-114.258,-49.316
1678714567.176,-88.379,42.969,46.875,-79.102,-64.453
1678714567.180,55.664,48.340,44.922,126.953,0.977
1678714567.184,125.977,39.062,47.363,230.469,159.668
1678714567.188,47.852,35.645,52.734,83.008,154.785
1678714567.192,-72.754,44.434,52.246,-101.074,1.953
1678714567.196,-77.637,55.176,51.270,-84.473,-76.660
1678714567.199,41.504,62.988,45.410,111.328,-19.531
1678714567.203,120.117,41.016,40.527,228.027,117.188
1678714567.207,60.059,37.109,48.340,111.816,109.863
1678714567.211,-62.500,49.316,51.758,-68.359,-47.852
1678714567.215,-76.172,55.176,45.410,-79.102,-89.844
1678714567.219,40.039,60.547,42.969,92.285,-63.477
1678714567.223,128.418,60.547,49.805,231.934,99.121
1678714567.227,82.031,55.664,64.941,146.973,126.465
1678714567.231,-42.969,48.828,71.289,-62.500,-44.434
1678714567.235,-95.703,48.828,61.035,-118.652,-92.285
1678714567.239,4.883,50.293,56.152,43.945,-109.863
1678714567.242,121.582,46.875,55.664,218.262,54.688
1678714567.246,95.215,34.668,55.176,172.852,121.094
1678714567.250,-28.320,43.457,57.129,-28.809,-7.324
1678714567.254,-84.473,62.988,61.035,-107.422,-46.875
1678714567.258,-3.418,58.594,56.641,34.668,-81.055
1678714567.262,104.004,45.898,53.711,209.961,78.125
1678714567.266,96.191,48.828,59.570,184.082,178.223
1678714567.270,-31.738,54.199,58.594,-20.996,25.391
1678714567.274,-110.352,49.805,57.129,-132.812,-84.473
1678714567.278,-38.574,42.969,47.363,-9.766,-112.793
1678714567.282,85.938,41.016,41.016,187.988,43.945
1678714567.285,109.863,50.293,54.199,196.777,189.941
1678714567.289,-0.488,62.988,61.035,4.883,38.086
1678714567.293,-90.820,53.711,57.129,-120.605,-78.613
1678714567.297,-35.156,41.016,48.340,-30.273,-98.145
1678714567.301,92.773,44.434,39.062,165.527,2.441
1678714567.305,115.234,50.781,46.387,215.820,179.199
1678714567.309,5.371,58.594,57.129,43.457,82.031
1678714567.313,-90.332,62.500,66.406,-111.328,-86.426
1678714567.317,-50.781,55.664,62.012,-40.527,-117.676
1678714567.321,67.871,45.410,46.875,148.438,-41.992
1678714567.324,106.445,41.992,41.504,212.402,123.535
1678714567.328,21.973,53.711,46.387,62.012,75.684
1678714567.332,-83.496,56.641,50.293,-109.863,-29.297
1678714567.336,-64.941,52.246,56.641,-74.219,-76.660
1678714567.340,58.105,59.082,57.617,117.188,-26.367
1678714567.344,119.629,55.176,52.246,217.773,127.441
1678714567.348,40.527,57.129,53.711,90.332,126.465
1678714567.352,-70.801,59.570,55.176,-95.215,10.254
1678714567.356,-68.359,57.129,58.594,-89.355,-61.035
1678714567.360,40.527,58.594,53.711,94.238,-51.270
1678714567.364,121.094,53.223,49.805,223.633,94.727
1678714567.367,68.359,54.688,58.594,125.000,126.953
1678714567.371,-62.500,60.547,57.129,-71.777,-35.156
1678714567.375,-81.543,57.129,51.270,-104.004,-25.879
1678714567.379,33.691,50.293,52.246,72.754,-6.348
1678714567.383,122.559,48.340,49.316,226.562,49.805
1678714567.387,74.219,52.734,44.434,134.766,99.609
1678714567.391,-54.199,56.152,45.898,-73.242,-22.461
1678714567.395,-90.332,54.199,50.293,-113.281,-65.918
1678714567.399,21.973,54.199,49.316,49.805,-17.578
1678714567.403,129.395,57.129,46.875,207.520,71.289
1678714567.407,93.262,53.223,47.852,160.156,110.840
1678714567.410,-32.715,55.664,50.293,-32.715,-25.879
1678714567.414,-91.797,60.059,55.664,-109.375,-79.102
1678714567.418,0.488,58.594,49.316,31.738,-28.320
1678714567.422,114.258,52.246,42.480,201.660,58.105
1678714567.426,95.215,45.898,49.805,181.152,116.699
1678714567.430,-28.809,50.293,51.758,-10.254,7.324
1678714567.434,-96.191,52.246,52.246,-116.211,-50.293
1678714567.438,-24.902,45.410,52.734,2.441,-18.555
1678714567.442,102.539,45.410,51.270,191.406,83.984
1678714567.446,112.793,48.828,56.152,202.637,138.672
1678714567.449,-19.531,38.574,53.223,0.488,6.348
1678714567.453,-112.305,35.156,44.922,-140.137,-60.059
1678714567.457,-48.340,37.109,44.434,-40.039,-52.734
1678714567.461,81.055,41.504,46.387,161.133,3.906
1678714567.465,112.793,52.246,48.828,214.355,122.559
1678714567.469,6.348,63.965,55.176,36.133,78.613
1678714567.473,-88.867,62.988,56.641,-134.277,-7.812
1678714567.477,-48.340,53.223,47.852,-62.012,-33.203
1678714567.481,68.359,50.781,41.016,145.996,-14.160
1678714567.485,117.188,48.340,36.133,205.078,81.055
1678714567.489,24.414,43.457,35.645,43.945,44.922
1678714567.492,-90.820,44.434,45.898,-114.746,-35.156
1678714567.496,-70.801,45.898,48.828,-64.941,-61.035
1678714567.500,71.777,37.109,36.621,140.137,-50.781
1678714567.504,124.512,40.039,33.203,222.168,80.566
1678714567.508,16.113,59.082,37.598,63.965,77.637
1678714567.512,-85.938,57.129,42.969,-104.492,-38.574
1678714567.516,-73.242,58.105,44.922,-76.660,-44.922
1678714567.520,42.969,61.523,38.574,101.074,-19.531
1678714567.524,126.465,55.176,27.344,215.332,115.234
1678714567.528,58.594,56.641,26.367,108.398,75.684
1678714567.531,-75.195,60.059,28.320,-93.262,-50.293
1678714567.535,-97.656,59.082,27.832,-123.535,-45.410
1678714567.539,15.137,56.641,21.484,49.805,-61.035
1678714567.543,113.281,52.734,14.160,202.637,53.711
1678714567.547,69.824,48.340,21.973,126.465,90.820
1678714567.551,-46.387,52.246,29.297,-83.008,-59.082
1678714567.555,-77.148,59.570,27.832,-120.117,-127.930
1678714567.559,30.273,62.988,35.156,62.988,-83.496
1678714567.563,141.602,61.035,39.551,230.469,67.871
1678714567.567,111.328,62.500,40.039,170.898,138.672
1678714567.571,-20.020,60.547,41.992,-41.504,20.996
1678714567.574,-81.543,46.875,34.668,-125.488,-41.504
1678714567.578,2.930,48.828,36.133,13.672,-41.992
1678714567.582,114.746,50.781,40.527,197.266,37.109
1678714567.586,103.516,47.363,39.062,175.293,128.906
1678714567.590,-14.160,40.039,43.945,-20.508,37.598
1678714567.594,-88.379,43.457,48.828,-120.605,12.207
1678714567.598,-23.438,50.781,45.410,-6.348,34.180
1678714567.602,98.633,48.828,43.457,183.594,58.594
1678714567.606,114.258,48.340,47.852,201.172,129.883
1678714567.610,-0.977,48.828,54.199,15.137,37.598
1678714567.614,-91.797,45.410,52.246,-119.141,-21.973
1678714567.617,-36.621,42.969,48.340,-27.344,-37.598
1678714567.621,85.938,47.363,36.621,172.852,-34.180
1678714567.625,123.047,53.711,35.156,224.121,95.215
1678714567.629,21.484,54.688,43.945,46.387,0.000
1678714567.633,-83.008,46.875,43.457,-120.117,-46.387
1678714567.637,-54.199,41.504,41.016,-67.871,6.836
1678714567.641,65.918,47.363,40.527,134.277,10.742
1678714567.645,117.188,44.922,44.922,216.797,106.934
1678714567.649,22.461,38.086,48.828,54.199,72.754
1678714567.653,-86.426,44.922,51.270,-121.582,-45.410
1678714567.656,-69.336,53.711,45.410,-83.984,-7.324
1678714567.660,54.199,45.898,42.480,115.234,17.090
1678714567.664,119.141,41.992,41.992,212.402,82.520
1678714567.668,33.691,43.945,41.992,69.336,71.289
1678714567.672,-79.102,47.852,44.922,-113.281,-26.367
1678714567.676,-81.055,45.410,41.016,-100.586,-24.414
1678714567.680,28.320,32.715,35.645,90.332,-9.766
1678714567.684,112.793,34.180,42.480,220.703,66.895
1678714567.688,46.387,44.922,42.480,98.145,125.488
1678714567.692,-74.707,47.852,43.945,-104.004,38.086
1678714567.696,-83.496,49.316,46.387,-116.699,6.836
1678714567.699,34.668,41.016,39.551,79.102,2.930
1678714567.703,128.906,37.109,38.574,230.469,62.500
1678714567.707,81.543,46.875,47.852,130.859,103.516
1678714567.711,-42.480,59.082,58.105,-62.500,23.926
1678714567.715,-82.520,57.129,52.246,-116.699,25.879
1678714567.719,23.926,54.199,45.898,38.574,27.344
1678714567.723,128.906,50.781,47.363,210.449,78.125
1678714567.727,97.656,45.898,49.805,163.574,97.168
1678714567.731,-29.297,53.711,54.688,-28.320,26.367
1678714567.735,-81.055,54.199,54.688,-111.328,-3.418
1678714567.739,13.672,43.457,43.457,35.645,-12.695
1678714567.742,126.465,38.086,44.434,215.332,35.645
1678714567.746,101.074,39.062,57.617,162.109,53.711
1678714567.750,-31.250,40.527,67.871,-31.250,-18.555
1678714567.754,-86.426,46.875,66.406,-115.234,-20.996
1678714567.758,-7.812,45.410,62.500,0.977,-3.418
1678714567.762,104.492,36.621,61.035,187.988,53.223
1678714567.766,117.676,40.039,66.406,208.984,157.227
1678714567.770,4.883,45.410,70.801,28.320,46.875
1678714567.774,-83.984,40.527,64.941,-112.305,-71.777
1678714567.778,-25.879,40.039,59.082,-12.695,-58.594
1678714567.781,100.098,43.945,57.617,188.965,14.648
1678714567.785,131.836,39.062,57.617,224.121,123.047
1678714567.789,22.461,33.691,62.988,60.059,51.758
1678714567.793,-82.520,34.180,60.059,-90.820,-80.566
1678714567.797,-44.922,34.180,52.734,-31.738,-12.207
1678714567.801,80.078,39.062,54.199,166.992,102.051
1678714567.805,127.930,47.363,62.988,234.375,139.648
1678714567.809,30.762,47.852,69.336,84.473,49.316
1678714567.813,-76.172,36.133,65.918,-94.238,-75.195
1678714567.817,-51.758,31.250,56.641,-71.777,-35.156
1678714567.821,74.219,39.062,49.805,127.441,40.527
1678714567.824,131.348,47.852,56.152,230.957,112.305
1678714567.828,32.715,46.387,64.941,85.938,78.613
1678714567.832,-96.191,34.668,56.152,-112.793,-27.344
1678714567.836,-87.402,31.738,49.316,-96.680,-20.996
1678714567.840,35.156,24.414,48.828,101.562,9.277
1678714567.844,115.234,26.367,52.246,221.680,85.449
1678714567.848,50.781,41.504,62.988,103.516,51.758
1678714567.852,-72.266,48.340,68.848,-93.262,-23.438
1678714567.856,-83.008,45.898,64.941,-109.375,1.465
1678714567.860,34.668,40.527,59.570,77.637,-17.578
1678714567.863,126.953,38.086,56.641,213.867,64.453
1678714567.867,77.148,45.898,62.012,126.953,88.379
1678714567.871,-45.410,57.129,67.871,-69.824,0.977
1678714567.875,-75.195,58.105,59.082,-123.047,-40.527
1678714567.879,36.621,54.688,54.199,43.457,-40.527
1678714567.883,131.348,48.340,55.176,212.891,45.898
1678714567.887,86.426,44.922,49.316,160.645,60.547
1678714567.891,-31.250,64.453,54.199,-42.480,36.621
1678714567.895,-84.961,67.871,59.082,-111.328,45.898
1678714567.899,7.324,54.688,52.246,34.668,10.742
1678714567.903,116.211,47.363,48.828,190.430,20.996
1678714567.906,97.656,49.316,52.734,166.504,101.074
1678714567.910,-13.184,62.012,62.012,-20.020,44.922
1678714567.914,-85.449,61.035,65.430,-117.676,-29.785
1678714567.918,-28.809,51.270,58.105,10.742,-10.742
1678714567.922,101.562,53.223,52.246,194.824,58.594
1678714567.926,119.141,58.105,60.059,200.195,148.926
1678714567.930,-4.395,57.617,65.918,0.977,43.457
1678714567.934,-86.426,55.664,58.594,-131.836,-70.801
1678714567.938,-24.414,58.105,61.523,-20.996,-83.496
1678714567.942,95.703,56.152,64.453,175.293,-29.297
1678714567.946,122.559,46.875,57.617,207.031,118.652
1678714567.949,7.812,42.480,52.734,32.227,71.289
1678714567.953,-98.145,53.223,54.199,-115.723,-27.344
1678714567.957,-56.641,62.988,49.316,-55.664,-61.523
1678714567.961,69.336,62.988,47.363,133.789,6.348
1678714567.965,114.258,62.012,50.781,197.754,141.602
1678714567.969,11.719,62.988,49.805,38.574,58.594
1678714567.973,-94.727,59.570,55.176,-122.559,-43.945
1678714567.977,-74.219,54.199,52.734,-82.031,23.926
1678714567.981,62.500,60.547,49.316,118.652,20.508
1678714567.985,137.695,62.012,57.129,213.379,38.574
1678714567.988,38.574,57.129,59.570,59.570,1.465
1678714567.992,-88.867,53.711,55.664,-125.000,-81.543
1678714567.996,-89.355,54.688,51.270,-104.004,-57.129
1678714568.000,30.762,58.105,48.828,91.797,-7.324
1678714568.004,111.328,53.223,47.852,211.914,89.844
1678714568.008,38.574,51.270,52.246,90.820,72.266
1678714568.012,-81.055,53.223,50.293,-100.098,-48.340
1678714568.016,-93.750,51.270,44.434,-109.863,-68.848
1678714568.020,18.066,46.387,46.387,62.988,11.230
1678714568.024,104.492,37.598,40.039,196.777,98.633
1678714568.028,53.711,40.527,37.598,112.793,93.262
1678714568.031,-70.801,55.176,47.363,-77.637,14.648
1678714568.035,-112.305,54.199,52.734,-122.070,-6.348
1678714568.039,-11.719,38.574,43.457,31.738,5.859
1678714568.043,92.773,33.203,37.109,182.129,55.664
1678714568.047,77.637,45.898,39.551,125.000,129.395
1678714568.051,-42.480,47.852,46.387,-64.453,-9.766
1678714568.055,-98.633,53.223,49.805,-131.836,-115.234
1678714568.059,-13.672,53.711,41.504,4.395,-54.688
1678714568.063,102.539,45.898,37.598,182.617,45.410
1678714568.067,111.816,53.711,42.969,175.293,109.375
1678714568.071,-15.625,49.805,50.781,-21.973,28.320
1678714568.074,-101.074,44.922,58.105,-124.512,-0.488
1678714568.078,-14.648,50.293,63.477,5.859,11.719
1678714568.082,115.234,43.945,54.199,187.500,68.848
1678714568.086,121.094,40.527,49.316,187.500,109.375
1678714568.090,-8.301,40.527,58.105,2.441,39.062
1678714568.094,-105.957,36.621,59.570,-122.070,-16.602
1678714568.098,-44.922,43.457,60.059,-23.438,-12.695
1678714568.102,96.191,42.969,58.105,183.105,2.930
1678714568.106,132.324,38.574,62.988,222.168,122.070
1678714568.110,22.461,48.340,70.801,43.457,67.383
1678714568.113,-80.078,42.969,65.918,-99.609,-27.832
1678714568.117,-42.480,35.156,53.223,-27.344,2.930
1678714568.121,82.520,32.715,46.875,168.945,48.340
1678714568.125,125.000,32.227,54.688,228.516,113.770
1678714568.129,40.039,49.316,68.848,77.148,75.195
1678714568.133,-58.594,56.152,64.453,-81.543,-0.977
1678714568.137,-50.293,38.574,49.805,-57.129,-36.133
1678714568.141,64.453,30.273,51.270,125.977,29.785
1678714568.145,135.254,35.645,54.199,219.727,134.277
1678714568.149,47.852,36.133,53.223,74.707,159.180
1678714568.153,-74.219,41.016,63.477,-102.539,76.660
1678714568.156,-71.289,41.504,62.988,-81.055,-25.879
1678714568.160,53.711,41.992,46.387,106.445,-23.926
1678714568.164,138.184,49.805,43.945,226.074,90.332
1678714568.168,69.336,53.223,58.105,116.211,88.379
1678714568.172,-51.270,50.781,62.500,-71.777,-3.418
1678714568.176,-79.590,41.504,55.664,-87.891,-0.488
1678714568.180,15.137,38.086,44.434,77.637,20.508
1678714568.184,117.676,36.621,43.945,216.309,85.938
1678714568.188,80.078,44.922,57.617,141.113,99.609
1678714568.192,-49.316,51.270,52.246,-57.617,22.461
1678714568.196,-94.727,31.738,46.387,-114.258,-14.648
1678714568.199,11.719,29.785,52.734,49.316,-32.227
1678714568.203,116.211,41.016,55.176,211.426,57.617
1678714568.207,83.496,41.992,55.664,150.391,84.473
1678714568.211,-42.480,43.457,56.152,-39.062,20.508
1678714568.215,-96.680,42.969,51.758,-107.910,-78.613
1678714568.219,-6.348,39.062,40.527,29.297,-76.172
1678714568.223,100.586,40.527,36.621,184.570,70.801
1678714568.227,86.426,44.434,45.410,149.902,96.191
1678714568.231,-31.250,47.852,46.387,-34.180,8.301
1678714568.235,-107.910,47.363,41.504,-137.695,-56.152
1678714568.238,-33.691,45.898,44.434,-24.902,-46.875
1678714568.242,93.262,41.016,48.828,163.086,-1.953
1678714568.246,93.262,44.922,55.176,176.758,68.359
1678714568.250,-25.879,54.688,53.711,0.977,33.691
1678714568.254,-99.121,52.734,50.781,-126.465,-50.293
1678714568.258,-51.270,43.457,47.852,-48.340,-33.203
1678714568.262,69.336,36.621,40.039,141.602,83.008
1678714568.266,104.492,41.504,45.410,184.082,104.004
1678714568.270,-13.672,46.875,52.246,14.160,28.320
1678714568.274,-106.934,47.363,50.293,-127.441,7.812
1678714568.278,-58.105,47.852,48.340,-62.012,13.672
1678714568.281,69.824,46.875,48.340,133.301,31.250
1678714568.285,116.211,47.363,48.340,206.055,108.398
1678714568.289,16.602,51.758,50.293,54.688,97.656
1678714568.293,-86.914,55.664,49.316,-117.676,20.508
1678714568.297,-68.848,51.270,47.852,-85.449,-20.508
1678714568.301,47.852,38.574,41.992,100.098,-12.207
1678714568.305,112.793,40.039,34.668,191.895,62.988
1678714568.309,34.180,43.457,47.363,67.871,69.824
1678714568.313,-84.961,45.410,53.223,-105.469,-7.324
1678714568.317,-83.496,45.898,44.434,-96.191,-68.848
1678714568.320,37.109,40.527,34.180,83.496,-23.438
1678714568.324,118.652,47.363,32.227,199.219,67.871
1678714568.328,54.199,60.059,41.992,95.215,26.367
1678714568.332,-71.777,60.059,41.504,-98.145,-33.691
1678714568.336,-88.379,50.293,35.645,-119.629,-11.719
1678714568.340,23.438,49.805,40.039,58.105,-22.949
1678714568.344,103.516,45.410,43.945,185.059,38.574
1678714568.348,57.129,42.480,47.363,96.191,117.188
1678714568.352,-63.477,52.734,49.316,-93.262,29.785
1678714568.356,-96.680,53.711,46.387,-122.559,-67.871
1678714568.360,8.301,41.504,39.062,47.363,-57.129
1678714568.363,111.816,34.180,34.180,195.312,68.848
1678714568.367,82.031,39.062,33.203,139.160,118.164
1678714568.371,-51.758,40.039,39.062,-55.664,32.715
1678714568.375,-114.258,43.457,41.504,-135.742,33.203
1678714568.379,-17.090,43.945,38.086,5.371,47.852
1678714568.383,101.562,39.062,35.156,173.828,79.590
1678714568.387,95.215,37.109,38.086,155.273,108.398
1678714568.391,-20.020,41.504,43.457,-16.113,6.348
1678714568.395,-87.891,50.293,40.527,-136.230,-56.641
1678714568.399,-13.184,51.270,40.039,-19.043,11.230
1678714568.403,107.422,44.922,38.574,182.129,85.938
1678714568.406,117.188,48.340,41.992,193.359,75.195
1678714568.410,-3.906,55.664,49.316,14.648,4.883
1678714568.414,-90.332,48.340,44.434,-115.234,-9.277
1678714568.418,-31.738,46.875,38.086,-19.043,-7.324
1678714568.422,94.727,47.852,33.203,166.504,38.574
1678714568.426,123.047,42.480,40.039,205.078,89.355
1678714568.430,10.254,48.828,56.641,28.809,49.316
1678714568.434,-93.750,54.199,60.547,-130.859,3.418
1678714568.438,-50.781,54.199,54.688,-57.617,25.879
1678714568.442,82.031,48.828,50.293,139.648,72.754
1678714568.445,115.234,39.062,54.199,208.496,71.777
1678714568.449,15.625,38.574,50.293,53.223,21.484
1678714568.453,-77.148,41.504,46.875,-106.934,36.133
1678714568.457,-61.523,39.062,52.734,-64.941,33.203
1678714568.461,42.969,29.785,51.270,115.234,44.922
1678714568.465,107.910,29.785,49.805,206.055,105.469
1678714568.469,37.109,43.945,49.805,65.918,46.387
1678714568.473,-68.359,59.570,53.223,-116.699,-29.785
1678714568.477,-69.824,54.688,50.781,-100.586,-57.617
1678714568.481,49.316,48.340,51.270,99.609,-45.410
1678714568.485,128.906,56.641,54.199,226.562,51.758
1678714568.488,54.199,47.852,44.922,104.980,64.941
1678714568.492,-60.059,35.156,44.922,-84.473,-34.668
1678714568.496,-61.035,36.133,49.805,-86.914,-41.016
1678714568.500,41.992,36.621,45.410,87.891,-12.695
1678714568.504,117.676,39.062,41.992,208.008,39.062
1678714568.508,68.848,44.434,46.875,108.398,64.941
1678714568.512,-63.965,36.621,46.387,-92.773,23.926
1678714568.516,-99.609,52.734,49.316,-129.883,-7.812
1678714568.520,18.066,68.848,49.805,46.875,-5.859
1678714568.524,118.652,46.387,41.504,189.453,23.926
1678714568.528,76.172,37.109,47.852,124.023,8.301
1678714568.531,-48.828,47.852,58.594,-64.453,-39.551
1678714568.535,-96.191,62.988,57.129,-133.301,-35.645
1678714568.539,-0.488,54.688,48.828,14.160,-55.176
1678714568.543,109.375,38.086,42.969,193.848,-15.625
1678714568.547,103.027,42.969,47.852,175.781,83.496
1678714568.551,-10.254,45.410,55.664,-23.438,22.461
1678714568.555,-65.918,66.895,73.730,-120.117,-25.879
1678714568.559,12.207,70.312,71.777,0.977,-4.395
1678714568.563,108.398,32.715,50.293,177.246,34.180
1678714568.567,109.863,26.367,52.246,183.105,62.500
1678714568.570,3.906,37.598,64.453,-6.836,0.000
1678714568.574,-82.520,47.363,60.547,-132.812,-4.883
1678714568.578,-23.438,45.898,49.805,-28.809,-12.695
1678714568.582,100.586,35.156,42.969,168.457,-32.715
1678714568.586,115.723,52.734,50.781,208.984,9.277
1678714568.590,-0.977,46.875,55.176,23.438,-14.648
1678714568.594,-98.633,31.738,44.434,-126.465,-53.223
1678714568.598,-60.059,35.645,41.504,-48.828,4.395
1678714568.602,72.266,40.527,39.551,149.414,102.539
1678714568.606,128.418,37.109,36.621,204.102,77.637
1678714568.610,20.508,39.062,46.387,44.434,-4.883
1678714568.613,-92.285,50.781,51.758,-91.309,7.324
1678714568.617,-61.523,53.711,52.246,-52.734,19.531
1678714568.621,60.547,44.922,48.340,109.375,26.367
1678714568.625,117.676,39.551,37.598,199.707,69.824
1678714568.629,40.039,43.945,45.898,66.406,47.363
1678714568.633,-70.801,48.340,56.152,-113.281,8.301
1678714568.637,-65.430,57.129,57.129,-95.703,11.230
1678714568.641,51.270,56.152,49.316,91.309,46.387
1678714568.645,130.371,45.410,40.039,189.941,77.637
1678714568.649,75.684,41.016,33.691,82.031,70.801
1678714568.652,-54.688,43.945,44.434,-85.449,38.574
1678714568.656,-99.121,45.898,62.012,-118.164,26.367
1678714568.660,17.578,44.922,64.453,42.480,23.438
1678714568.664,111.816,41.992,61.523,181.641,73.242
1678714568.668,47.363,41.504,62.988,112.793,97.168
1678714568.672,-79.590,44.922,76.172,-69.824,54.199
1678714568.676,-134.766,38.574,82.520,-121.094,23.926
1678714568.680,-35.645,34.668,77.148,44.434,-3.906
1678714568.684,84.473,38.574,79.102,209.961,61.523
1678714568.688,39.062,38.086,88.379,139.160,108.398
1678714568.692,-93.262,41.016,87.402,-78.613,32.715
1678714568.695,-131.836,43.945,79.102,-142.090,-59.082
1678714568.699,-38.086,41.504,72.266,14.648,-39.551
1678714568.703,72.266,29.297,69.336,192.383,89.355
1678714568.707,62.012,23.926,70.801,166.016,129.395
1678714568.711,-46.387,41.504,76.660,-25.391,44.922
1678714568.715,-92.285,57.129,83.496,-115.234,-38.086
1678714568.719,-11.719,60.547,81.055,13.672,-29.297
1678714568.723,96.680,46.875,75.195,200.195,40.039
1678714568.727,83.984,31.738,63.965,192.383,120.117
1678714568.731,-35.645,38.574,64.941,-6.348,65.918
1678714568.735,-106.445,44.434,70.312,-127.930,-61.035
1678714568.738,-42.969,37.598,65.918,-20.020,-89.844
1678714568.742,86.426,41.992,62.988,180.664,22.461
1678714568.746,124.023,48.828,72.266,219.727,83.008
1678714568.750,17.578,36.621,81.543,40.527,38.086
1678714568.754,-90.332,31.738,68.359,-116.211,-24.414
1678714568.758,-43.457,38.086,57.129,-31.250,-41.504
1678714568.762,85.938,36.621,52.734,165.039,-14.648
1678714568.766,126.953,37.109,45.898,213.379,46.387
1678714568.770,36.133,46.875,52.734,63.965,86.914
1678714568.774,-71.289,57.129,62.988,-93.750,25.391
1678714568.777,-60.059,49.316,58.594,-56.152,-59.082
1678714568.781,64.941,35.156,53.223,138.672,9.277
1678714568.785,131.348,41.016,52.246,230.957,104.004
1678714568.789,47.363,46.387,58.594,96.191,30.762
1678714568.793,-67.383,52.246,65.918,-83.008,11.230
1678714568.797,-66.406,43.457,62.988,-61.523,4.395
1678714568.801,45.898,28.320,61.523,117.676,-10.742
1678714568.805,124.023,42.480,56.152,228.027,52.246
1678714568.809,62.500,47.852,51.758,127.441,74.219
1678714568.813,-61.523,50.781,55.176,-62.012,18.066
1678714568.817,-76.172,54.688,61.523,-81.543,-31.250
1678714568.820,37.109,45.898,65.430,89.844,-7.812
1678714568.824,126.465,46.875,55.176,215.820,69.336
1678714568.828,78.613,53.223,60.059,125.000,94.727
1678714568.832,-44.922,53.711,69.824,-68.848,62.012
1678714568.836,-90.820,45.410,58.594,-111.328,9.766
1678714568.840,5.371,34.668,51.758,51.758,4.395
1678714568.844,113.281,30.273,49.316,199.219,83.496
1678714568.848,85.449,36.133,48.828,138.672,104.004
1678714568.852,-36.133,44.922,55.176,-55.176,43.945
1678714568.856,-91.309,46.387,53.711,-124.023,0.977
1678714568.860,1.465,46.387,48.828,25.391,34.180
1678714568.863,116.211,42.969,56.152,191.895,101.074
1678714568.867,92.285,42.480,55.176,150.879,105.469
1678714568.871,-9.277,59.570,63.477,-36.621,59.082
1678714568.875,-74.219,63.965,74.707,-124.023,1.465
1678714568.879,-35.645,45.898,53.223,-10.742,-5.371
1678714568.883,79.590,38.086,41.016,168.457,42.969
1678714568.887,92.773,39.551,48.340,172.363,68.848
1678714568.891,-21.973,35.645,55.664,-21.973,30.762
1678714568.895,-102.539,26.855,55.664,-143.555,-7.324
1678714568.899,-26.855,34.668,49.316,-34.668,-18.555
1678714568.902,103.516,48.828,49.805,163.086,31.738
1678714568.906,119.141,51.758,56.152,197.266,78.613
1678714568.910,2.930,50.781,55.664,26.855,18.555
1678714568.914,-91.309,56.641,60.547,-110.840,-3.418
1678714568.918,-47.852,50.781,64.941,-48.828,-39.551
1678714568.922,89.844,37.109,63.965,147.949,-6.348
1678714568.926,148.438,37.598,66.895,237.793,53.711
1678714568.930,42.969,54.688,71.777,62.012,-0.977
1678714568.934,-75.684,60.059,69.336,-132.324,-11.230
1678714568.938,-47.363,60.547,69.824,-82.031,37.109
1678714568.942,68.848,63.477,64.453,100.586,73.730
1678714568.945,130.371,48.340,52.246,178.711,115.234
1678714568.949,65.918,56.152,51.270,47.852,57.617
1678714568.953,-70.801,66.406,44.434,-139.648,-8.301
1678714568.957,-80.078,42.480,30.762,-132.812,-12.695
1678714568.961,37.109,38.574,19.043,45.410,-15.137
1678714568.965,106.934,59.082,11.230,158.203,35.156
1678714568.969,59.570,67.871,16.113,61.523,82.520
1678714568.973,-51.758,68.848,20.508,-127.441,64.453
1678714568.977,-83.496,62.988,12.695,-143.066,-12.207
1678714568.981,20.020,54.199,2.441,30.273,-16.602
1678714568.984,125.488,52.734,8.301,175.781,62.012
1678714568.988,100.586,61.035,30.273,115.234,83.008
1678714568.992,-26.367,63.477,37.598,-66.895,53.223
1678714568.996,-76.660,56.641,21.484,-119.141,-29.785
1678714569.000,16.602,54.199,8.301,22.461,-58.594
1678714569.004,118.652,43.945,7.324,179.199,64.453
1678714569.008,89.844,36.133,17.578,143.555,118.164
1678714569.012,-26.367,50.293,21.973,-60.547,-3.906
1678714569.016,-59.082,69.824,25.391,-132.324,-24.414
1678714569.020,34.668,64.941,26.855,12.695,40.039
1678714569.024,134.277,44.922,11.230,166.016,61.035
1678714569.027,114.258,45.898,8.301,144.043,86.426
1678714569.031,-19.531,51.270,16.113,-41.504,61.523
1678714569.035,-96.191,48.828,22.461,-134.277,4.395
1678714569.039,-3.906,51.270,16.602,-13.184,-10.254
1678714569.043,129.395,42.969,13.184,168.457,-25.879
1678714569.047,129.883,41.016,25.879,176.758,-4.883
1678714569.051,16.113,58.594,39.062,-5.371,54.199
1678714569.055,-68.848,54.199,36.621,-129.395,9.766
1678714569.059,-22.949,36.621,20.996,-42.480,-18.555
1678714569.063,105.957,37.598,20.996,153.320,44.922
1678714569.067,141.113,34.668,26.367,186.523,56.152
1678714569.070,26.367,34.668,23.438,20.020,20.996
1678714569.074,-77.637,50.293,30.273,-103.027,10.742
1678714569.078,-34.180,51.270,31.250,-34.180,0.977
1678714569.082,95.215,39.551,20.020,142.090,2.441
1678714569.086,139.160,35.645,21.973,193.359,22.461
1678714569.090,32.715,44.434,27.344,36.133,9.766
1678714569.094,-77.148,51.758,29.785,-119.141,-27.832
1678714569.098,-36.133,59.082,34.668,-69.336,-23.926
1678714569.102,90.332,58.594,36.133,121.582,50.781
1678714569.106,144.043,40.039,31.250,209.473,62.500
1678714569.109,56.152,41.992,34.180,70.312,-16.113
1678714569.113,-67.383,47.363,34.180,-107.422,10.254
1678714569.117,-66.406,40.527,29.297,-98.145,8.301
1678714569.121,56.641,32.715,32.227,84.473,13.672
1678714569.125,150.879,36.133,27.832,194.824,67.383
1678714569.129,83.496,36.621,29.785,79.590,30.762
1678714569.133,-42.480,47.852,44.922,-82.520,15.625
1678714569.137,-64.453,58.105,40.527,-93.262,6.348
1678714569.141,32.227,45.410,32.715,62.988,10.742
1678714569.145,123.535,50.293,41.016,194.824,43.945
1678714569.149,75.195,58.105,40.527,115.723,57.617
1678714569.152,-54.199,43.457,41.016,-76.172,6.836
1678714569.156,-87.402,36.133,42.480,-119.141,17.578
1678714569.160,20.020,57.129,41.992,48.828,58.105
1678714569.164,125.977,62.500,44.922,202.148,72.266
1678714569.168,98.145,52.734,46.875,148.438,83.496
1678714569.172,-35.156,46.875,49.805,-52.246,25.879
1678714569.176,-97.168,43.457,41.504,-138.672,2.930
1678714569.180,-1.465,38.086,35.645,11.230,96.680
1678714569.184,118.652,38.086,33.691,169.922,128.906
1678714569.188,115.234,50.293,36.133,129.395,51.270
1678714569.192,-10.742,48.340,46.875,-41.992,-17.090
1678714569.195,-83.496,38.574,47.363,-131.836,-57.129
1678714569.199,-3.906,41.504,43.945,-1.465,-74.219
1678714569.203,111.328,40.039,40.039,180.664,-12.695
1678714569.207,99.609,42.480,40.527,170.410,0.000
1678714569.211,-29.785,54.688,44.434,-19.043,-31.250
1678714569.215,-97.168,52.246,43.457,-132.324,33.203
1678714569.219,-24.414,42.480,38.086,-25.391,86.426
1678714569.223,110.840,44.922,39.551,166.504,71.289
1678714569.227,133.789,43.457,41.504,187.500,58.594
1678714569.231,9.766,39.551,40.527,4.883,28.320
1678714569.234,-85.938,22.461,47.363,-137.695,0.488
1678714569.238,-50.293,19.043,42.480,-53.711,14.160
1678714569.242,69.336,41.016,37.598,149.414,50.781
1678714569.246,122.070,60.547,42.969,198.242,78.125
1678714569.250,19.043,61.523,43.945,29.297,-31.738
1678714569.254,-101.074,51.758,47.363,-125.977,-74.707
1678714569.258,-75.684,43.457,49.316,-66.406,19.043
1678714569.262,48.340,43.457,46.875,111.816,60.547
1678714569.266,102.051,38.574,41.992,172.363,39.551
1678714569.270,22.461,41.016,43.945,37.109,43.945
1678714569.274,-80.566,51.758,47.852,-116.211,10.742
1678714569.277,-62.012,55.176,46.387,-98.633,-5.371
1678714569.281,64.941,41.016,43.945,82.520,14.648
1678714569.285,142.090,31.250,40.039,210.449,29.297
1678714569.289,70.312,42.480,40.527,83.496,23.926
1678714569.293,-59.082,42.969,45.410,-116.699,-13.184
1678714569.297,-85.938,34.180,46.387,-115.723,3.418
1678714569.301,26.367,31.250,36.133,58.105,49.805
1678714569.305,122.070,38.574,30.762,192.871,69.824
1678714569.309,70.312,45.898,38.086,120.605,-12.207
1678714569.313,-48.340,48.828,43.945,-70.801,-40.039
1678714569.316,-73.730,49.805,41.016,-114.258,-4.883
1678714569.320,45.410,45.898,39.062,38.574,31.738
1678714569.324,143.066,38.086,39.062,174.316,41.016
1678714569.328,98.633,35.645,41.504,127.930,10.742
1678714569.332,-30.762,40.039,48.828,-46.875,-5.859
1678714569.336,-94.727,45.410,47.363,-114.258,7.324
1678714569.340,-1.465,47.852,42.480,30.273,30.762
1678714569.344,125.488,49.316,43.457,203.613,36.133
1678714569.348,122.070,59.082,54.199,172.363,86.914
1678714569.352,-6.348,54.199,51.270,-36.621,77.637
1678714569.356,-83.008,44.922,40.527,-132.812,4.883
1678714569.359,5.371,45.410,44.434,-9.766,15.625
1678714569.363,137.695,43.945,37.598,146.973,24.414
1678714569.367,122.559,42.480,28.809,143.555,13.184
1678714569.371,-4.395,56.641,51.758,-3.418,60.059
1678714569.375,-84.473,56.152,62.988,-100.586,21.973
1678714569.379,-46.875,35.156,46.875,-16.602,-21.484
1678714569.383,74.707,35.645,34.180,152.344,19.531
1678714569.387,102.539,40.527,37.109,168.457,-5.371
1678714569.391,-7.324,44.922,47.852,2.930,-25.879
1678714569.395,-87.891,54.199,50.781,-146.973,-38.574
1678714569.399,-22.461,54.688,51.270,-83.008,-12.695
1678714569.402,91.797,44.434,54.688,126.953,18.555
1678714569.406,112.793,41.016,61.523,194.824,21.484
1678714569.410,29.785,49.805,59.082,37.598,59.570
1678714569.414,-72.754,51.758,48.828,-112.793,75.684
1678714569.418,-47.852,45.410,50.781,-80.078,25.391
1678714569.422,70.312,50.781,52.734,103.516,-14.160
1678714569.426,124.512,41.504,52.246,211.914,47.363
1678714569.430,43.457,28.320,53.711,71.777,67.871
1678714569.434,-70.801,42.480,54.199,-104.004,45.410
1678714569.438,-65.918,49.805,53.223,-90.332,59.082
1678714569.441,60.547,49.316,49.316,87.402,40.527
1678714569.445,155.273,53.711,43.945,201.172,54.199
1678714569.449,91.797,56.152,49.316,93.262,118.164
1678714569.453,-40.039,54.199,57.129,-100.586,80.078
1678714569.457,-62.988,46.875,61.035,-130.371,16.602
1678714569.461,57.129,45.898,68.359,62.988,12.207
1678714569.465,154.785,49.805,53.223,208.496,32.227
1678714569.469,99.609,52.246,26.367,109.863,49.316
1678714569.473,-18.066,57.617,43.457,-68.359,36.621
1678714569.477,-75.684,54.199,64.941,-117.188,-16.602
1678714569.481,4.883,48.340,57.617,23.438,-43.945
1678714569.484,125.977,43.457,55.176,179.199,-11.230
1678714569.488,103.516,42.480,54.688,123.535,52.734
1678714569.492,-23.438,52.246,56.152,-53.711,48.340
1678714569.496,-80.078,46.875,57.129,-130.859,-5.859
1678714569.500,1.953,39.551,53.223,1.953,-51.758
1678714569.504,111.816,46.387,54.688,184.570,-13.672
1678714569.508,108.887,51.270,57.129,171.875,28.320
1678714569.512,2.930,49.805,62.012,-0.488,-9.766
1678714569.516,-57.617,45.898,64.453,-94.238,-19.531
1678714569.520,19.531,45.410,61.035,23.438,36.133
1678714569.524,127.441,44.434,58.594,192.383,46.875
1678714569.527,121.582,47.363,60.059,178.711,61.035
1678714569.531,16.113,50.293,61.035,-1.953,-16.602
1678714569.535,-54.688,43.457,62.012,-107.910,-39.551
1678714569.539,2.441,38.086,64.941,3.418,22.461
1678714569.543,132.324,46.387,67.871,199.219,-8.301
1678714569.547,150.391,51.270,59.082,210.449,0.977
1678714569.551,32.715,46.875,52.734,39.062,-0.488
1678714569.555,-64.941,41.504,55.664,-85.938,0.000
1678714569.559,-20.020,49.316,59.570,-12.207,22.949
1678714569.563,115.234,50.781,57.129,172.852,66.406
1678714569.566,155.762,38.086,50.781,205.078,20.508
1678714569.570,55.664,40.039,52.246,60.547,-42.969
1678714569.574,-55.176,47.363,55.664,-73.730,11.719
1678714569.578,-31.250,41.016,55.176,-46.387,48.340
1678714569.582,105.957,31.738,44.434,144.043,23.926
1678714569.586,167.480,35.645,49.316,239.258,30.273
1678714569.590,67.383,42.480,60.547,97.168,25.391
1678714569.594,-54.688,49.316,59.082,-84.473,28.809
1678714569.598,-42.969,47.363,54.688,-63.965,1.953
1678714569.602,76.660,41.504,52.734,118.164,23.438
1678714569.606,152.832,43.945,54.199,219.238,92.285
1678714569.609,83.984,46.387,57.129,109.863,101.074
1678714569.613,-46.387,47.363,59.082,-68.359,77.637
1678714569.617,-57.617,45.898,57.617,-80.078,38.574
1678714569.621,62.500,36.133,54.199,89.844,11.719
1678714569.625,148.926,40.039,55.176,221.191,-20.508
1678714569.629,90.820,54.688,55.664,124.023,29.785
1678714569.633,-37.598,59.082,56.152,-69.336,56.152
1678714569.637,-70.801,52.734,59.082,-96.191,20.508
1678714569.641,27.832,47.852,55.664,66.895,23.438
1678714569.645,131.836,50.293,54.199,214.844,33.203
1678714569.648,95.215,47.363,57.617,146.484,45.898
1678714569.652,-35.156,53.223,59.082,-37.598,69.336
1678714569.656,-87.402,52.246,56.641,-99.121,42.480
1678714569.660,9.277,45.410,46.875,30.273,17.578
1678714569.664,129.395,52.246,42.480,194.824,44.922
1678714569.668,109.863,51.758,50.293,162.109,59.082
1678714569.672,-14.160,51.270,55.176,-25.879,31.738
1678714569.676,-80.566,44.922,54.688,-103.516,6.836
1678714569.680,-1.953,37.598,53.711,20.020,-30.273
1678714569.684,120.117,43.945,50.293,192.871,-10.254
1678714569.688,121.094,52.734,54.199,199.219,37.109
1678714569.691,0.000,51.758,54.688,13.184,35.156
1678714569.695,-83.984,45.898,52.734,-102.539,49.316
1678714569.699,-19.531,39.062,47.363,-4.883,39.551
1678714569.703,118.164,34.180,38.086,170.410,27.832
1678714569.707,139.160,47.363,41.016,187.988,58.105
1678714569.711,9.277,56.641,46.875,0.000,10.742
1678714569.715,-81.543,54.199,54.688,-122.559,8.301
1678714569.719,-27.344,50.781,57.129,-29.297,5.859
1678714569.723,103.027,43.457,48.340,150.879,27.344
1678714569.727,148.926,42.969,46.875,205.566,62.012
1678714569.731,41.016,48.340,51.758,57.129,24.902
1678714569.734,-68.359,46.387,50.781,-96.680,6.348
1678714569.738,-48.340,32.227,45.898,-48.340,-37.109
1678714569.742,71.777,30.273,40.527,140.137,22.461
1678714569.746,133.789,42.480,35.645,219.727,19.043
1678714569.750,47.363,46.875,37.109,78.613,16.113
1678714569.754,-66.895,41.504,43.457,-91.309,111.816
1678714569.758,-58.594,43.457,40.527,-67.871,60.059
1678714569.762,60.059,42.480,41.992,110.840,14.648
1678714569.766,136.230,42.480,42.480,207.520,15.137
1678714569.770,63.965,49.316,41.992,91.309,-11.719
1678714569.773,-50.781,52.734,43.457,-79.102,0.977
1678714569.777,-61.035,51.758,40.527,-85.938,12.695
1678714569.781,35.645,41.504,35.645,75.195,80.078
1678714569.785,121.582,32.715,33.203,197.754,93.750
1678714569.789,77.148,33.203,37.598,112.793,33.691
1678714569.793,-43.457,39.062,44.922,-70.312,40.527
1678714569.797,-75.195,43.945,45.410,-108.398,63.965
1678714569.801,23.438,45.410,42.969,44.434,65.430
1678714569.805,120.117,46.387,41.504,183.105,49.316
1678714569.809,77.637,39.062,41.504,120.605,33.203
1678714569.813,-45.410,40.527,43.945,-67.871,17.578
1678714569.816,-90.820,48.828,43.945,-129.883,17.578
1678714569.820,6.348,45.410,37.598,25.391,12.695
1678714569.824,123.047,39.062,34.180,193.359,76.660
1678714569.828,104.980,40.527,40.039,159.180,114.746
1678714569.832,-24.414,39.551,45.898,-34.668,21.973
1678714569.836,-96.680,36.621,44.434,-126.953,-42.480
1678714569.840,-18.066,40.527,49.316,0.977,5.371
1678714569.844,103.516,35.156,46.387,176.758,56.641
1678714569.848,105.957,30.273,35.645,168.457,14.648
1678714569.852,-15.625,34.180,44.434,-11.230,4.395
1678714569.856,-100.586,33.203,52.734,-116.699,29.297
1678714569.859,-38.574,33.691,46.387,-15.137,66.406
1678714569.863,80.566,34.668,39.062,150.391,79.102
1678714569.867,103.516,41.504,40.527,169.434,21.973
1678714569.871,-0.488,49.316,48.340,13.672,-16.602
1678714569.875,-85.449,51.758,51.270,-120.117,-20.996
1678714569.879,-43.945,44.434,49.316,-47.363,-11.719
1678714569.883,72.754,38.086,47.852,144.043,-13.184
1678714569.887,115.234,38.574,42.480,196.777,30.762
1678714569.891,15.137,32.227,37.598,32.715,16.113
1678714569.895,-85.449,31.250,38.086,-132.324,-25.391
1678714569.898,-63.477,39.551,37.109,-92.773,27.832
1678714569.902,65.918,42.480,37.109,104.980,16.113
1678714569.906,132.812,41.016,36.621,195.312,38.086
1678714569.910,41.504,43.457,41.504,51.270,24.414
1678714569.914,-73.730,46.875,49.316,-104.980,-16.113
1678714569.918,-64.941,33.691,44.434,-77.148,13.672
1678714569.922,60.059,27.344,36.621,91.797,34.668
1678714569.926,141.113,36.621,40.527,204.102,51.758
1678714569.930,66.406,41.992,42.969,90.332,11.230
1678714569.934,-60.547,46.387,40.527,-95.215,8.301
1678714569.938,-71.777,50.293,44.434,-92.285,49.316
1678714569.941,35.645,44.434,41.992,79.102,94.238
1678714569.945,119.141,33.691,38.574,199.219,34.668
1678714569.949,66.895,43.945,42.969,112.793,34.668
1678714569.953,-59.570,49.316,45.410,-71.289,81.543
1678714569.957,-79.590,38.574,45.410,-115.723,72.266
1678714569.961,34.180,38.086,45.410,46.387,62.500
1678714569.965,126.953,43.457,42.969,194.336,30.273
1678714569.969,82.031,46.387,41.504,131.348,14.160
1678714569.973,-44.922,48.340,43.945,-48.828,-6.836
1678714569.977,-97.656,50.781,41.504,-117.188,0.000
1678714569.980,-3.906,51.758,39.551,26.855,36.133
1678714569.984,108.887,49.316,32.715,182.617,57.129
1678714569.988,98.145,45.898,29.785,152.344,68.359
1678714569.992,-17.090,48.828,35.645,-24.414,24.414
1678714569.996,-82.520,47.852,36.621,-129.883,0.488
1678714570.000,-6.836,45.410,45.410,-12.695,58.105
1678714570.004,108.887,43.945,41.016,164.062,68.359
1678714570.008,111.816,47.363,28.320,158.691,21.484
1678714570.012,-8.789,47.852,33.203,-19.043,38.086
1678714570.016,-104.492,44.434,40.527,-128.906,26.855
1678714570.020,-49.805,44.922,37.109,-24.902,-8.789
1678714570.023,75.195,45.898,30.762,148.926,-14.648
1678714570.027,99.121,41.504,40.039,168.945,26.855
1678714570.031,-2.930,46.875,51.270,6.836,42.480
1678714570.035,-85.938,55.664,46.875,-122.559,-8.301
1678714570.039,-38.574,48.340,38.574,-43.457,26.855
1678714570.043,71.777,39.062,42.969,133.789,111.328
1678714570.047,103.516,36.621,45.410,187.988,91.309
1678714570.051,8.789,49.805,48.340,40.527,35.645
1678714570.055,-97.656,46.387,50.293,-120.117,33.203
1678714570.059,-67.871,40.527,42.480,-84.473,49.316
1678714570.063,56.152,42.480,35.156,94.238,32.715
1678714570.066,116.699,38.574,39.551,176.758,41.992
1678714570.070,34.180,46.875,44.434,55.664,36.621
1678714570.074,-83.008,48.828,43.457,-97.168,30.762
1678714570.078,-74.219,42.480,42.480,-87.402,56.152
1678714570.082,47.852,46.875,38.086,83.496,72.266
1678714570.086,128.906,51.270,28.809,199.219,120.117
1678714570.090,62.012,54.199,26.367,96.191,72.754
1678714570.094,-58.105,56.641,39.062,-80.078,-22.949
1678714570.098,-62.500,45.898,42.969,-100.586,-1.465
1678714570.102,33.203,30.762,30.762,49.805,52.246
1678714570.105,107.910,40.039,36.621,185.059,41.992
1678714570.109,67.383,41.016,43.457,111.816,10.254
1678714570.113,-53.223,34.668,38.086,-72.754,-9.766
1678714570.117,-88.867,42.969,36.621,-110.352,15.137
1678714570.121,1.953,37.109,34.180,31.738,93.262
1678714570.125,103.027,28.809,37.109,174.805,99.609
1678714570.129,74.707,38.086,35.156,123.535,76.172
1678714570.133,-48.340,41.504,32.715,-61.523,60.547
1678714570.137,-82.520,49.805,45.410,-115.723,20.996
1678714570.141,15.625,53.223,34.180,37.109,-9.277
1678714570.145,113.281,50.293,30.273,188.477,7.812
1678714570.148,86.426,45.898,42.480,140.625,-10.254
1678714570.152,-36.621,42.969,48.828,-42.969,16.113
1678714570.156,-111.816,45.410,56.641,-128.906,13.184
1678714570.160,-19.043,44.922,50.293,7.812,-12.695
1678714570.164,107.910,44.922,43.945,186.035,23.926
1678714570.168,96.191,39.062,45.898,167.969,102.539
1678714570.172,-27.832,30.762,41.992,-26.367,101.074
1678714570.176,-101.074,40.527,48.828,-136.230,36.133
1678714570.180,-19.531,57.617,55.664,-30.762,1.465
1678714570.184,99.609,56.152,47.852,147.949,3.906
1678714570.188,114.258,58.105,45.898,173.828,46.875
1678714570.191,0.000,54.688,46.387,-5.371,55.176
1678714570.195,-100.586,32.227,44.922,-144.043,72.266
1678714570.199,-51.270,21.973,43.945,-60.547,82.031
1678714570.203,73.730,39.062,39.062,117.676,37.598
1678714570.207,117.676,51.758,46.875,169.922,52.734
1678714570.211,20.508,47.363,50.781,24.902,58.594
1678714570.215,-83.984,51.758,54.199,-114.746,21.484
1678714570.219,-53.223,57.129,63.477,-67.383,-8.789
1678714570.223,58.594,43.457,50.781,95.703,35.645
1678714570.227,108.398,35.645,37.109,173.828,20.996
1678714570.230,26.367,46.387,41.992,46.875,26.855
1678714570.234,-89.355,56.152,52.734,-123.047,24.902
1678714570.238,-86.914,50.781,55.176,-100.098,-9.766
1678714570.242,21.484,35.645,41.992,62.500,8.301
1678714570.246,96.191,41.992,39.062,164.062,50.293
1678714570.250,15.137,49.805,42.969,47.852,41.504
1678714570.254,-117.676,48.340,41.016,-149.414,-2.930
1678714570.258,-135.742,53.711,40.039,-152.832,31.738
1678714570.262,-49.316,53.223,37.598,-5.371,17.578
1678714570.266,20.508,56.641,34.180,92.773,42.969
1678714570.270,-50.781,63.965,30.762,-1.953,67.383
1678714570.273,-191.895,66.406,33.691,-206.055,27.344
1678714570.277,-229.980,63.477,34.180,-250.000,6.348
1678714570.281,-142.090,60.547,28.809,-112.305,-1.953
1678714570.285,-51.758,62.988,25.879,8.789,25.391
1678714570.289,-88.867,65.430,27.832,-53.711,28.320
1678714570.293,-226.074,62.988,35.156,-252.441,12.695
1678714570.297,-287.109,63.477,39.062,-316.406,-30.273
1678714570.301,-199.219,66.406,35.156,-173.340,-39.551
1678714570.305,-96.191,61.035,32.227,-20.020,31.738
1678714570.309,-117.188,58.594,31.250,-55.664,87.402
1678714570.312,-233.887,60.547,28.809,-245.605,18.066
1678714570.316,-286.621,62.988,36.621,-302.734,6.348
1678714570.320,-179.688,64.453,47.363,-145.996,88.867
1678714570.324,-61.035,55.176,31.738,5.859,106.934
1678714570.328,-61.035,53.711,23.438,-1.465,23.438
1678714570.332,-149.414,63.965,33.691,-156.738,-37.109
1678714570.336,-216.309,63.965,34.668,-250.488,5.859
1678714570.340,-146.484,54.199,31.250,-139.648,23.438
1678714570.344,-1.465,45.410,28.809,55.664,78.613
1678714570.348,47.852,39.551,28.320,106.934,69.824
1678714570.352,-42.480,45.410,36.621,-44.434,12.695
1678714570.355,-122.070,51.270,49.805,-155.273,20.996
1678714570.359,-69.336,48.828,46.387,-65.430,55.176
1678714570.363,60.547,42.480,39.551,119.629,20.020
1678714570.367,107.910,43.457,39.551,183.105,28.320
1678714570.371,13.672,43.945,43.945,45.898,49.805
1678714570.375,-83.496,43.945,47.852,-96.191,27.344
1678714570.379,-45.410,49.316,43.945,-56.641,65.430
1678714570.383,88.379,42.480,41.016,125.977,62.012
1678714570.387,155.273,33.203,41.992,214.355,10.742
1678714570.391,72.754,37.109,49.316,90.332,47.852
1678714570.395,-42.969,40.039,55.664,-60.059,74.707
1678714570.398,-29.297,36.621,47.363,-44.434,53.223
1678714570.402,93.750,33.203,34.668,117.676,21.973
1678714570.406,158.691,25.391,30.273,222.656,-18.555
1678714570.410,88.379,31.738,40.039,119.629,-5.371
1678714570.414,-31.738,39.551,50.781,-53.711,-13.672
1678714570.418,-41.504,39.062,51.758,-69.824,-21.973
1678714570.422,70.801,32.715,45.410,95.215,20.996
1678714570.426,162.109,35.156,39.062,226.074,22.461
1678714570.430,107.422,42.480,40.527,140.625,12.695
1678714570.434,-28.320,38.086,46.387,-51.270,1.465
1678714570.437,-51.270,35.645,51.270,-83.008,11.230
1678714570.441,61.035,36.621,51.758,84.961,4.395
1678714570.445,156.250,34.668,49.316,226.074,45.898
1678714570.449,118.164,33.203,52.734,167.480,59.570
1678714570.453,-12.207,31.250,57.129,-21.484,-18.555
1678714570.457,-56.641,30.273,53.711,-94.727,-16.113
1678714570.461,38.574,25.391,49.316,55.176,-1.953
1678714570.465,153.809,24.902,45.898,230.957,39.062
1678714570.469,149.902,39.062,49.805,198.242,48.340
1678714570.473,20.508,48.340,60.547,12.695,15.625
1678714570.477,-65.430,44.922,55.664,-93.262,87.402
1678714570.480,7.812,36.621,47.363,29.297,79.590
1678714570.484,144.531,33.203,47.363,224.121,14.160
1678714570.488,162.598,39.062,48.340,204.590,29.297
1678714570.492,28.320,35.645,46.875,12.207,47.363
1678714570.496,-68.848,31.738,44.922,-104.980,-10.254
1678714570.500,4.395,34.668,52.246,1.465,17.090
1678714570.504,135.254,38.086,56.641,192.383,71.289
1678714570.508,150.391,34.180,49.805,206.055,51.758
1678714570.512,37.598,31.250,42.969,22.949,17.578
1678714570.516,-49.316,41.504,51.270,-115.234,-13.672
1678714570.520,-17.578,48.828,54.688,-48.828,16.602
1678714570.523,99.609,41.504,52.246,146.973,16.113
1678714570.527,145.508,39.551,46.875,194.824,66.406
1678714570.531,42.969,43.457,30.762,10.254,56.641
1678714570.535,-62.500,42.969,34.180,-137.207,-24.414
1678714570.539,-40.039,34.180,44.922,-64.453,-12.207
1678714570.543,75.195,22.949,37.598,118.164,50.293
1678714570.547,136.719,25.391,33.203,190.918,34.180
1678714570.551,55.176,37.598,35.156,52.246,-10.742
1678714570.555,-71.289,39.062,29.785,-121.582,14.160
1678714570.559,-58.594,35.156,37.598,-77.637,25.391
1678714570.562,73.242,33.691,40.527,116.211,-14.160
1678714570.566,127.441,30.273,30.762,183.594,-6.348
1678714570.570,41.992,30.273,43.945,68.359,9.277
1678714570.574,-83.984,28.320,49.805,-84.473,-13.672
1678714570.578,-95.215,30.762,39.062,-107.910,-34.668
1678714570.582,33.203,41.992,40.527,48.828,-40.039
1678714570.586,97.168,32.227,32.715,165.527,15.625
1678714570.590,14.648,29.297,29.785,61.523,62.012
1678714570.594,-92.285,40.527,42.969,-125.488,75.195
1678714570.598,-119.141,34.668,40.527,-153.320,71.289
1678714570.602,-6.348,34.180,28.809,24.902,-10.254
1678714570.605,105.957,41.504,28.320,168.945,35.156
1678714570.609,63.477,45.410,36.133,88.867,113.770
1678714570.613,-71.289,41.992,40.039,-98.633,30.273
1678714570.617,-119.141,47.852,42.480,-139.160,-44.922
1678714570.621,-26.367,55.664,41.016,9.766,22.949
1678714570.625,82.520,49.805,28.809,138.672,76.172
1678714570.629,70.312,48.340,32.227,105.469,54.688
1678714570.633,-61.035,51.270,44.922,-50.293,0.488
1678714570.637,-116.699,57.129,45.410,-120.605,-40.039
1678714570.641,-19.531,46.387,39.062,6.836,16.113
1678714570.644,80.078,36.621,36.621,168.457,33.203
1678714570.648,82.520,41.504,40.527,169.434,22.461
1678714570.652,-20.020,46.875,42.480,-17.578,31.738
1678714570.656,-106.445,44.434,39.551,-148.926,90.332
1678714570.660,-34.180,43.457,38.574,-42.969,72.754
1678714570.664,91.797,43.457,34.180,140.137,39.062
1678714570.668,114.746,41.504,26.367,162.109,48.340
1678714570.672,9.766,43.945,29.785,1.465,50.781
1678714570.676,-86.914,47.363,32.227,-121.094,87.402
1678714570.680,-40.527,42.969,24.902,-46.875,12.207
1678714570.684,95.215,33.203,27.832,129.883,-46.387
1678714570.687,134.277,25.391,33.203,189.941,-21.484
1678714570.691,32.227,32.715,35.645,38.574,13.184
1678714570.695,-69.824,42.480,43.457,-111.328,33.203
1678714570.699,-35.645,47.852,45.898,-62.500,-9.277
1678714570.703,81.055,41.016,40.039,122.559,8.301
1678714570.707,126.465,30.762,37.598,225.098,47.852
1678714570.711,49.805,42.480,40.527,78.613,25.391
1678714570.715,-50.781,50.293,41.992,-110.352,13.184
1678714570.719,-39.551,43.457,44.434,-64.941,14.648
1678714570.723,92.773,41.016,42.480,109.863,19.043
1678714570.727,174.805,44.922,41.992,199.707,12.695
1678714570.730,89.844,49.805,45.898,98.633,-4.395
1678714570.734,-44.922,43.457,48.828,-73.242,20.020
1678714570.738,-62.988,39.062,43.945,-74.219,81.543
1678714570.742,55.664,43.945,38.086,92.285,50.781
1678714570.746,157.715,41.016,42.969,205.566,70.801
1678714570.750,99.609,33.691,44.922,117.676,44.922
1678714570.754,-39.062,35.156,49.316,-63.477,16.602
1678714570.758,-64.453,39.062,55.176,-90.820,20.020
1678714570.762,50.781,35.645,52.246,80.566,31.250
1678714570.766,157.715,33.691,49.805,228.027,59.570
1678714570.769,118.652,41.504,48.340,152.832,34.668
1678714570.773,-19.043,42.480,47.852,-44.922,53.711
1678714570.777,-60.059,44.434,47.363,-105.469,50.781
1678714570.781,39.551,43.945,41.992,32.227,24.414
1678714570.785,140.625,38.574,41.016,199.219,15.625
1678714570.789,129.883,43.945,46.387,185.547,26.367
1678714570.793,9.766,45.410,49.316,1.953,28.320
1678714570.797,-64.453,40.039,48.340,-106.445,4.395
1678714570.801,6.348,31.250,44.922,18.555,-2.930
1678714570.805,116.699,32.715,41.016,199.219,47.363
1678714570.809,106.445,37.598,39.062,174.805,56.641
1678714570.812,-13.184,37.109,45.410,-6.348,35.156
1678714570.816,-83.984,43.457,45.410,-107.422,41.992
1678714570.820,-11.230,44.434,39.062,-12.207,57.617
1678714570.824,111.328,39.551,37.598,171.875,36.621
1678714570.828,131.348,37.598,41.992,199.219,15.625
1678714570.832,21.973,41.992,44.922,29.297,-42.969
1678714570.836,-78.613,44.434,44.922,-102.539,-69.824
1678714570.840,-46.875,37.598,42.480,-35.645,-15.625
1678714570.844,75.684,39.062,41.016,150.391,61.523
1678714570.848,118.652,43.457,42.969,192.871,100.098
1678714570.852,13.184,41.504,42.480,18.555,13.184
1678714570.855,-93.262,48.828,41.992,-121.582,19.043
1678714570.859,-58.594,49.316,42.969,-62.500,28.809
1678714570.863,63.477,38.574,37.598,128.906,34.668
1678714570.867,114.258,38.086,35.156,187.988,63.965
1678714570.871,26.367,46.387,38.574,43.457,48.828
1678714570.875,-86.914,47.852,37.598,-115.723,29.297
1678714570.879,-83.008,43.457,38.574,-99.609,1.953
1678714570.883,37.109,41.016,40.527,75.195,4.395
1678714570.887,117.188,45.410,38.086,182.617,25.391
1678714570.891,29.297,48.828,40.527,67.871,30.273
1678714570.894,-113.281,46.875,42.969,-132.812,-4.883
1678714570.898,-128.906,46.875,43.945,-138.672,-37.109
1678714570.902,-3.906,52.246,39.551,8.789,29.785
1678714570.906,86.426,52.734,39.551,121.094,98.145
1678714570.910,10.254,45.410,40.527,47.852,89.355
1678714570.914,-117.188,51.758,37.109,-140.625,37.598
1678714570.918,-140.625,55.664,35.156,-182.129,-5.859
1678714570.922,-52.246,51.270,33.691,-41.504,16.113
1678714570.926,47.363,56.152,29.297,118.652,60.059
1678714570.930,0.977,64.941,30.762,40.527,44.434
1678714570.934,-152.832,67.871,32.715,-198.242,32.715
1678714570.937,-227.539,65.430,33.691,-270.508,-0.977
1678714570.941,-145.508,63.965,31.738,-140.137,-40.039
1678714570.945,-33.691,64.941,21.484,16.602,65.430
1678714570.949,-69.336,67.383,23.926,-32.715,57.617
1678714570.953,-213.379,66.406,25.391,-237.793,-1.953
1678714570.957,-279.297,67.383,25.391,-334.473,8.789
1678714570.961,-220.215,64.453,29.297,-212.402,-28.809
1678714570.965,-113.281,61.035,27.832,-35.645,28.320
1678714570.969,-101.562,66.406,30.762,-50.293,71.289
1678714570.973,-222.656,72.266,35.645,-231.934,75.195
1678714570.976,-305.664,71.289,35.645,-341.309,82.520
1678714570.980,-232.910,66.895,37.598,-229.004,27.832
1678714570.984,-99.121,66.895,37.109,-32.715,32.227
1678714570.988,-76.660,68.848,35.645,-8.789,79.590
1678714570.992,-173.340,62.012,39.062,-163.086,3.906
1678714570.996,-249.512,58.594,39.062,-277.832,-44.922
1678714571.000,-191.406,62.988,37.598,-186.523,15.625
1678714571.004,-41.504,57.129,37.598,26.855,40.039
1678714571.008,11.719,46.875,36.621,93.262,47.852
1678714571.012,-76.660,50.293,38.574,-36.621,42.969
1678714571.016,-149.902,50.781,41.992,-159.180,20.020
1678714571.019,-95.215,48.340,44.434,-104.980,48.340
1678714571.023,49.805,46.875,44.922,93.750,66.895
1678714571.027,114.258,44.922,43.457,185.547,30.273
1678714571.031,37.109,41.504,49.805,66.895,63.477
1678714571.035,-56.641,40.039,51.758,-82.520,29.785
1678714571.039,-41.504,47.852,45.410,-50.781,3.906
1678714571.043,81.543,47.852,44.922,137.695,24.414
1678714571.047,164.062,35.156,48.828,245.117,54.199
1678714571.051,85.449,34.668,54.199,138.672,64.453
1678714571.055,-31.250,40.527,57.129,-32.227,0.000
1678714571.059,-33.691,38.086,56.152,-42.480,72.266
1678714571.062,72.754,29.297,54.199,127.441,90.820
1678714571.066,160.645,22.949,52.246,252.441,49.316
1678714571.070,115.234,27.344,55.664,164.551,23.926
1678714571.074,-4.395,32.227,62.012,-13.672,8.301
1678714571.078,-37.598,31.738,60.059,-41.992,8.301
1678714571.082,71.289,26.855,51.758,116.211,-39.551
1678714571.086,184.570,29.297,48.340,248.535,-36.621
1678714571.090,152.344,39.551,56.641,184.570,16.113
1678714571.094,14.648,36.133,55.664,-4.883,-0.488
1678714571.098,-39.551,30.273,46.875,-68.359,-28.320
1678714571.101,53.711,32.715,46.875,77.148,40.527
1678714571.105,157.715,21.973,45.410,228.516,34.180
1678714571.109,139.160,21.484,43.945,196.777,-19.531
1678714571.113,14.160,27.832,47.852,14.160,41.016
1678714571.117,-50.293,27.832,47.363,-74.219,57.129
1678714571.121,44.922,22.949,43.945,57.129,17.090
1678714571.125,165.039,20.996,43.457,224.609,74.707
1678714571.129,162.598,32.715,50.781,218.262,89.844
1678714571.133,52.246,36.621,60.547,42.969,45.898
1678714571.137,-31.738,34.180,58.594,-77.637,5.371
1678714571.141,30.273,41.016,53.711,15.625,-14.648
1678714571.144,155.273,44.922,51.758,192.871,-0.977
1678714571.148,163.574,39.062,47.852,221.680,45.410
1678714571.152,40.039,39.551,48.340,50.781,55.176
1678714571.156,-58.594,39.062,46.387,-95.215,-0.977
1678714571.160,-6.348,33.691,41.016,-19.043,44.922
1678714571.164,123.535,34.180,39.551,160.156,60.059
1678714571.168,159.180,34.668,41.504,215.332,12.207
1678714571.172,58.105,40.039,48.340,71.777,13.672
1678714571.176,-50.293,39.551,53.711,-83.496,10.742
1678714571.180,-23.926,33.203,47.852,-41.016,-16.113
1678714571.184,102.051,35.645,42.480,139.160,43.945
1678714571.187,155.273,41.504,45.898,215.820,91.797
1678714571.191,62.988,39.062,43.457,69.336,21.484
1678714571.195,-46.387,42.480,41.504,-90.332,-12.207
1678714571.199,-27.344,37.109,38.086,-55.664,2.930
1678714571.203,100.098,33.691,40.039,126.953,8.789
1678714571.207,179.688,44.434,48.340,232.910,-12.695
1678714571.211,98.633,48.340,52.734,109.375,5.859
1678714571.215,-28.809,46.875,51.270,-68.848,-20.020
1678714571.219,-36.621,48.340,49.805,-60.547,-22.461
1678714571.223,73.242,56.152,45.898,108.887,-4.883
1678714571.226,152.344,49.805,40.039,208.496,11.719
1678714571.230,91.797,38.574,45.410,111.816,19.531
1678714571.234,-35.645,43.945,50.293,-61.523,48.828
1678714571.238,-66.406,45.898,46.875,-93.750,66.406
1678714571.242,38.086,44.434,39.551,58.105,41.992
1678714571.246,144.043,47.852,41.504,211.914,103.516
1678714571.250,113.770,43.457,49.316,155.762,42.480
1678714571.254,-15.137,41.992,49.805,-37.109,-41.504
1678714571.258,-64.941,41.504,47.852,-93.750,-33.691
1678714571.262,41.016,38.574,47.363,47.852,1.465
1678714571.266,159.180,44.434,48.340,196.289,24.902
1678714571.269,133.301,47.363,47.363,151.855,20.020
1678714571.273,5.859,48.828,49.316,-30.273,26.367
1678714571.277,-67.871,50.781,52.246,-105.469,55.664
1678714571.281,11.719,52.246,44.434,20.508,63.965
1678714571.285,137.695,56.641,38.086,186.523,50.781
1678714571.289,132.324,47.363,39.062,172.852,60.547
1678714571.293,8.789,43.457,46.387,-1.465,48.828
1678714571.297,-64.941,53.223,55.664,-107.422,54.688
1678714571.301,-5.859,49.316,49.805,-17.578,9.766
1678714571.305,110.840,41.504,40.039,167.969,29.297
1678714571.308,137.695,36.133,42.969,190.918,64.941
1678714571.312,32.227,50.781,50.781,16.113,48.340
1678714571.316,-50.293,59.570,47.852,-118.652,14.160
1678714571.320,-3.418,50.781,44.922,-35.645,-0.977
1678714571.324,113.770,48.828,49.316,154.785,68.359
1678714571.328,149.902,54.688,55.664,206.055,97.656
1678714571.332,53.711,59.082,51.270,58.105,43.457
1678714571.336,-54.688,54.199,40.527,-108.398,13.672
1678714571.340,-47.363,37.598,34.180,-73.242,-13.184
1678714571.344,71.777,29.297,30.762,120.117,-45.410
1678714571.348,137.695,45.410,43.945,207.520,84.473
1678714571.351,51.270,61.035,54.199,69.824,108.398
1678714571.355,-61.523,50.781,46.387,-96.680,12.695
1678714571.359,-53.711,41.504,44.434,-69.824,14.160
1678714571.363,74.707,55.176,42.969,92.285,53.223
1678714571.367,163.086,60.059,39.062,187.988,72.754
1678714571.371,76.172,46.875,46.387,97.656,77.148
1678714571.375,-73.730,38.086,54.688,-74.219,77.148
1678714571.379,-71.777,44.922,48.340,-84.473,18.555
1678714571.383,55.664,45.898,41.992,104.004,17.090
1678714571.387,138.184,39.551,45.410,212.402,69.824
1678714571.391,87.402,48.340,56.152,110.840,100.098
1678714571.394,-39.551,56.152,58.594,-58.105,87.402
1678714571.398,-71.289,49.805,51.758,-101.562,20.508
1678714571.402,41.504,44.434,51.758,51.758,27.832
1678714571.406,143.066,44.434,57.129,198.730,59.082
1678714571.410,95.703,46.875,59.082,136.719,6.348
1678714571.414,-40.039,43.945,62.500,-37.109,55.176
1678714571.418,-86.914,41.016,64.453,-96.680,72.754
1678714571.422,13.184,41.504,58.105,30.762,45.898
1678714571.426,125.488,34.668,54.688,180.664,20.020
1678714571.430,95.215,40.527,52.734,145.020,25.391
1678714571.433,-27.344,47.852,55.664,-24.414,35.645
1678714571.437,-77.637,46.387,62.988,-106.445,-2.441
1678714571.441,-2.930,45.410,52.246,9.766,11.230
1678714571.445,110.352,42.480,45.898,180.664,9.766
1678714571.449,120.605,45.410,51.758,162.109,38.086
1678714571.453,3.418,46.387,51.270,-23.926,94.727
1678714571.457,-82.520,47.852,51.270,-130.371,48.340
1678714571.461,-19.043,44.922,53.711,-21.484,-51.270
1678714571.465,104.980,39.062,50.781,151.367,27.344
1678714571.469,135.254,44.922,51.758,172.852,63.477
1678714571.473,28.809,45.898,56.641,18.555,41.992
1678714571.476,-72.754,39.551,55.664,-129.395,-25.879
1678714571.480,-44.922,40.039,52.246,-68.848,-15.625
1678714571.484,73.730,41.016,48.828,120.605,37.109
1678714571.488,122.559,41.992,48.828,172.363,35.156
1678714571.492,33.691,45.410,54.688,28.320,41.016
1678714571.496,-76.660,41.016,57.617,-113.281,22.949
1678714571.500,-60.059,40.527,52.734,-75.684,44.922
1678714571.504,58.105,43.457,43.457,96.191,67.383
1678714571.508,127.930,44.922,46.387,178.223,85.938
1678714571.512,40.039,46.387,62.500,50.293,41.016
1678714571.516,-94.727,42.969,62.012,-127.930,-15.137
1678714571.519,-89.844,34.668,51.270,-103.516,16.602
1678714571.523,36.133,34.180,45.898,80.566,36.133
1678714571.527,109.863,41.016,47.363,174.316,30.273
1678714571.531,45.410,46.387,56.152,73.242,38.086
1678714571.535,-71.777,44.434,54.688,-109.375,60.547
1678714571.539,-86.914,38.574,42.480,-123.535,33.691
1678714571.543,32.715,35.156,39.551,52.246,26.855
1678714571.547,114.258,32.715,41.016,169.922,57.617
1678714571.551,48.340,28.320,43.457,82.520,32.715
1678714571.555,-66.895,38.086,46.387,-92.285,-9.277
1678714571.558,-88.867,46.387,40.527,-125.000,-62.012
1678714571.562,12.207,42.969,38.574,30.762,3.906
1678714571.566,110.352,36.133,40.527,167.480,32.715
1678714571.570,77.148,44.434,38.574,103.516,11.719
1678714571.574,-47.852,59.570,44.922,-82.520,77.637
1678714571.578,-102.051,50.293,45.410,-149.414,36.621
1678714571.582,-19.531,39.551,40.039,-15.625,-41.992
1678714571.586,88.379,36.621,39.551,134.766,33.691
1678714571.590,65.918,33.203,39.062,105.469,34.668
1678714571.594,-60.059,32.715,46.387,-65.430,36.133
1678714571.598,-115.234,41.504,53.711,-141.113,57.129
1678714571.601,-31.738,45.410,51.270,-18.066,-5.371
1678714571.605,90.332,44.434,50.293,149.414,41.016
1678714571.609,100.098,51.270,51.758,146.484,84.961
1678714571.613,-21.484,45.410,48.828,-26.367,28.320
1678714571.617,-103.516,37.109,50.781,-123.047,-37.109
1678714571.621,-40.039,40.039,47.852,-27.832,-76.172
1678714571.625,86.426,44.434,41.504,134.277,-11.719
1678714571.629,103.516,41.504,43.945,153.320,69.336
1678714571.633,-6.348,35.645,46.875,-3.906,103.516
1678714571.637,-89.844,38.086,47.852,-122.559,28.320
1678714571.640,-41.504,36.621,47.363,-52.246,-16.602
1678714571.644,88.867,37.598,42.969,118.652,60.059
1678714571.648,115.234,37.109,39.062,169.922,78.613
1678714571.652,1.465,34.668,43.457,13.672,51.270
1678714571.656,-99.121,37.598,47.363,-128.906,31.250
1678714571.660,-68.359,39.551,41.992,-64.453,-12.695
1678714571.664,57.617,39.062,41.016,111.816,-22.949
1678714571.668,104.980,36.621,49.316,179.688,23.438
1678714571.672,18.555,41.992,56.641,49.805,28.809
1678714571.676,-79.590,45.410,59.570,-106.445,4.395
1678714571.680,-72.266,30.762,53.223,-85.449,12.207
1678714571.683,44.434,21.973,46.387,88.867,61.035
1678714571.687,114.746,29.297,48.828,188.477,39.551
1678714571.691,43.945,41.504,59.570,77.148,6.836
1678714571.695,-79.590,39.551,60.547,-102.051,24.414
1678714571.699,-86.426,37.109,46.387,-104.980,-20.508
1678714571.703,38.574,45.410,43.457,68.848,-24.902
1678714571.707,121.582,43.457,47.363,193.848,-2.441
1678714571.711,57.617,36.133,47.852,97.168,30.273
1678714571.715,-57.617,45.898,47.852,-84.961,60.059
1678714571.719,-83.496,53.223,44.434,-111.816,51.270
1678714571.723,22.461,45.410,45.898,44.922,58.105
1678714571.726,121.094,39.551,43.945,181.641,73.730
1678714571.730,84.961,47.363,44.922,118.652,58.105
1678714571.734,-41.992,53.223,51.758,-52.734,20.020
1678714571.738,-99.609,43.457,46.875,-121.582,22.461
1678714571.742,-3.906,44.434,42.480,9.766,13.184
1678714571.746,109.863,42.480,43.457,164.062,36.133
1678714571.750,99.121,43.457,46.875,125.488,81.055
1678714571.754,-23.926,46.875,51.758,-42.480,-20.508
1678714571.758,-93.750,41.016,52.734,-116.211,-42.969
1678714571.762,-10.742,45.410,51.758,1.465,61.035
1678714571.765,102.539,40.527,45.410,158.203,66.895
1678714571.769,95.703,37.109,38.086,145.020,102.539
1678714571.773,-15.625,44.434,41.992,-21.973,38.574
1678714571.777,-95.215,43.457,43.457,-120.605,-55.664
1678714571.781,-42.480,43.945,44.434,-24.414,10.742
1678714571.785,82.520,40.039,42.480,138.672,25.391
1678714571.789,107.422,39.551,44.434,145.020,24.414
1678714571.793,-3.906,39.551,49.316,-15.137,34.180
1678714571.797,-101.562,39.062,45.898,-137.695,-13.184
1678714571.801,-50.781,44.434,43.457,-76.172,6.348
1678714571.805,70.801,46.875,45.898,99.609,62.500
1678714571.808,110.352,50.293,53.223,159.668,65.430
1678714571.812,8.789,44.434,58.105,18.555,46.387
1678714571.816,-96.680,44.922,58.594,-113.281,34.668
1678714571.820,-58.105,46.875,57.617,-68.848,27.832
1678714571.824,64.453,47.852,50.781,93.262,20.508
1678714571.828,117.188,48.340,55.176,159.668,57.129
1678714571.832,26.367,38.086,55.664,28.320,83.984
1678714571.836,-90.332,45.410,53.223,-111.816,24.414
1678714571.840,-83.984,47.852,53.711,-87.402,0.000
1678714571.844,33.691,38.086,45.898,72.266,20.996
1678714571.848,109.863,36.133,46.875,166.504,88.379
1678714571.851,48.828,41.504,55.664,66.895,41.992
1678714571.855,-69.336,46.875,52.734,-89.355,-45.410
1678714571.859,-88.867,47.363,49.316,-98.633,7.812
1678714571.863,14.160,37.109,46.387,52.734,23.438
1678714571.867,104.980,32.227,50.293,167.480,21.484
1678714571.871,59.082,40.527,60.547,84.473,-25.879
1678714571.875,-66.895,40.039,53.711,-84.473,-10.742
1678714571.879,-95.215,38.086,47.363,-114.746,10.254
1678714571.883,9.277,38.086,53.223,34.180,-16.113
1678714571.887,107.422,33.691,52.246,166.016,45.898
1678714571.890,77.637,45.410,55.664,113.770,128.418
1678714571.894,-48.828,48.828,56.152,-52.734,50.781
1678714571.898,-98.633,38.086,50.293,-117.188,-6.348
1678714571.902,-6.348,39.551,46.875,20.020,58.594
1678714571.906,95.215,35.156,47.363,163.086,102.539
1678714571.910,72.754,35.645,50.781,124.512,85.938
1678714571.914,-54.688,39.551,51.758,-41.504,-7.324
1678714571.918,-110.840,40.039,52.734,-130.371,-35.156
1678714571.922,-25.391,45.410,48.828,-2.930,28.809
1678714571.926,83.008,33.691,45.410,163.574,73.242
1678714571.930,86.914,31.738,54.199,160.156,56.641
1678714571.933,-25.391,38.086,57.617,13.672,-20.508
1678714571.937,-97.168,42.969,51.270,-86.426,-18.555
1678714571.941,-22.949,50.293,45.410,-9.766,35.156
1678714571.945,94.727,35.645,46.387,126.953,99.609
1678714571.949,114.746,27.344,53.711,125.000,145.996
1678714571.953,12.695,39.551,54.199,-46.875,105.469
1678714571.957,-78.125,45.898,53.711,-166.992,4.883
1678714571.961,-41.504,44.922,62.500,-83.496,-40.527
1678714571.965,72.266,39.062,51.758,85.449,38.086
1678714571.969,125.488,44.922,40.527,142.090,78.125
1678714571.972,28.320,57.129,49.805,6.348,43.457
1678714571.976,-88.867,44.434,57.617,-161.621,25.879
1678714571.980,-46.387,30.762,51.270,-118.164,4.883
1678714571.984,86.426,43.457,57.129,59.570,23.926
1678714571.988,118.652,41.504,67.383,133.789,84.473
1678714571.992,37.598,38.086,68.359,46.387,56.152
1678714571.996,-70.801,41.016,57.617,-77.637,32.227
1678714572.000,-86.914,29.297,43.457,-65.918,43.457
1678714572.004,25.879,30.762,60.547,61.523,82.520
1678714572.008,104.492,30.762,62.988,134.277,120.605
1678714572.012,39.062,46.387,60.547,29.297,106.934
1678714572.015,-85.449,46.875,65.918,-151.367,90.820
1678714572.019,-92.773,36.133,65.430,-155.762,50.781
1678714572.023,40.527,42.969,68.848,35.156,42.480
1678714572.027,143.555,51.758,68.359,188.965,160.645
1678714572.031,81.055,46.387,62.500,113.770,128.906
1678714572.035,-62.500,36.621,80.566,-60.059,12.207
1678714572.039,-99.609,41.504,88.379,-112.305,18.066
1678714572.043,10.254,39.062,79.102,28.320,54.199
1678714572.047,116.699,32.227,74.707,181.152,175.293
1678714572.051,85.938,41.016,79.590,138.184,216.797
1678714572.055,-41.992,45.410,84.961,-38.574,73.242
1678714572.058,-100.098,41.504,80.566,-88.867,-9.766
1678714572.062,-15.625,33.691,76.172,51.270,0.000
1678714572.066,91.797,30.273,76.172,192.871,178.223
1678714572.070,76.660,36.133,74.707,159.180,312.500
1678714572.074,-40.039,44.434,76.660,-6.348,100.098
1678714572.078,-107.422,50.293,75.684,-81.543,-62.012
1678714572.082,-25.391,35.156,68.359,32.227,-20.508
1678714572.086,101.562,23.438,71.777,198.242,154.785
1678714572.090,102.539,31.250,75.195,194.824,285.156
1678714572.094,-10.254,46.875,79.102,31.250,164.062
1678714572.097,-87.402,54.199,75.684,-75.684,45.410
1678714572.101,-29.297,42.969,65.918,-6.836,4.395
1678714572.105,94.727,36.621,67.383,152.832,120.117
1678714572.109,126.465,41.016,74.219,182.129,245.605
1678714572.113,19.043,45.898,80.078,41.016,92.773
1678714572.117,-91.309,38.086,81.055,-67.871,-54.199
1678714572.121,-52.734,32.227,80.566,-10.254,-83.984
1678714572.125,73.242,31.738,74.219,144.531,6.836
1678714572.129,114.746,30.762,68.848,200.195,195.312
1678714572.133,21.484,33.203,72.754,72.266,87.402
1678714572.137,-78.125,39.551,74.707,-71.289,-97.656
1678714572.140,-44.922,40.527,69.336,-28.320,-91.309
1678714572.144,77.148,40.039,66.406,140.137,-18.066
1678714572.148,132.812,45.898,67.871,217.285,118.652
1678714572.152,48.340,45.898,66.895,84.961,76.172
1678714572.156,-70.801,42.969,66.406,-84.961,-23.438
1678714572.160,-75.195,41.016,60.059,-79.590,-47.363
1678714572.164,45.410,39.551,56.152,82.031,-20.996
1678714572.168,122.070,42.969,63.477,176.758,97.168
1678714572.172,44.434,44.922,63.477,61.035,61.035
1678714572.176,-73.730,48.340,57.129,-98.145,-31.250
1678714572.180,-92.773,47.852,54.688,-105.957,-69.824
1678714572.183,-2.441,43.945,51.758,28.320,-63.965
1678714572.187,67.383,47.363,51.758,134.766,73.730
1678714572.191,-3.418,50.293,53.223,49.805,64.941
1678714572.195,-143.066,53.223,57.129,-127.930,-51.270
1678714572.199,-190.918,55.176,54.688,-173.828,-61.035
1678714572.203,-92.285,58.594,49.805,-39.551,-51.758
1678714572.207,5.371,60.059,50.293,88.867,-0.977
1678714572.211,-52.734,57.129,47.363,16.602,39.062
1678714572.215,-186.035,59.570,47.852,-176.758,-20.020
1678714572.219,-232.910,62.012,46.387,-251.953,-74.219
1678714572.222,-149.902,63.965,44.434,-117.676,-97.168
1678714572.226,-56.152,58.594,44.922,22.461,-36.133
1678714572.230,-78.125,58.105,45.410,-25.879,62.988
1678714572.234,-188.477,62.012,49.316,-192.383,-6.836
1678714572.238,-251.465,61.523,51.758,-273.926,-68.848
1678714572.242,-166.992,59.082,49.316,-160.156,-66.406
1678714572.246,-44.434,47.852,47.363,16.602,25.391
1678714572.250,-49.316,43.945,53.223,16.602,106.934
1678714572.254,-154.785,44.922,59.570,-138.672,1.465
1678714572.258,-203.613,44.922,57.617,-227.051,-36.133
1678714572.262,-125.000,41.016,54.688,-125.488,-11.230
1678714572.265,0.977,37.598,52.246,53.711,48.828
1678714572.269,36.621,47.363,52.734,94.727,68.848
1678714572.273,-57.129,49.316,62.500,-32.227,32.715
1678714572.277,-130.859,28.320,65.430,-143.066,24.902
1678714572.281,-59.570,24.414,67.383,-55.176,-21.484
1678714572.285,70.801,31.738,69.824,137.207,22.949
1678714572.289,109.863,24.902,63.965,185.547,82.031
1678714572.293,24.902,22.461,63.965,51.758,-16.602
1678714572.297,-64.453,28.809,64.941,-68.848,-65.430
1678714572.301,-11.230,34.180,73.730,-3.418,-39.062
1678714572.304,115.723,20.508,68.359,169.434,-31.738
1678714572.308,164.551,15.137,56.641,231.934,31.250
1678714572.312,84.961,24.414,61.523,119.141,41.992
1678714572.316,-17.578,27.344,67.871,-18.066,-34.180
1678714572.320,0.000,30.273,69.336,0.488,-64.453
1678714572.324,113.281,28.809,65.430,169.434,-33.203
1678714572.328,186.523,21.484,65.918,257.812,62.988
1678714572.332,124.512,20.508,73.730,147.949,73.242
1678714572.336,3.906,20.996,79.590,-4.395,41.504
1678714572.340,-7.812,22.461,73.242,-10.254,24.414
1678714572.344,107.422,30.762,63.477,143.555,2.441
1678714572.347,199.707,33.203,65.430,259.766,63.965
1678714572.351,144.043,33.691,68.359,172.852,125.488
1678714572.355,18.555,41.016,66.895,3.906,53.711
1678714572.359,-8.301,41.504,74.219,-14.160,-0.488
1678714572.363,89.844,33.691,67.383,118.652,-26.367
1678714572.367,188.477,34.180,59.570,232.422,46.387
1678714572.371,156.738,35.156,66.895,169.922,94.238
1678714572.375,20.996,34.668,60.547,-9.277,-19.043
1678714572.379,-31.250,41.504,57.129,-59.570,-15.625
1678714572.383,69.824,44.922,60.059,84.961,40.527
1678714572.387,175.781,38.086,60.059,231.445,51.758
1678714572.390,153.320,32.227,58.594,201.172,68.848
1678714572.394,38.574,25.879,57.617,38.086,31.250
1678714572.398,-21.484,25.391,56.641,-51.758,0.977
1678714572.402,59.570,37.598,55.176,57.617,7.324
1678714572.406,178.223,47.363,67.383,225.586,14.648
1678714572.410,167.969,47.363,69.336,231.934,30.762
1678714572.414,41.504,42.480,64.453,55.664,-17.090
1678714572.418,-34.668,37.598,62.012,-62.012,-1.953
1678714572.422,33.691,35.645,50.293,25.879,11.719
1678714572.426,145.020,31.250,49.316,187.012,6.836
1678714572.429,156.250,30.273,54.199,211.914,14.648
1678714572.433,43.457,40.039,57.129,68.359,-48.828
1678714572.437,-50.781,41.016,58.594,-49.805,-80.078
1678714572.441,2.930,37.109,55.664,16.113,-46.875
1678714572.445,132.812,33.203,47.363,179.688,-34.668
1678714572.449,159.180,25.391,41.504,218.750,17.578
1678714572.453,53.223,29.785,45.898,77.148,60.059
1678714572.457,-41.504,33.691,55.176,-62.988,4.395
1678714572.461,-20.508,31.250,52.734,-24.414,-32.227
1678714572.465,94.727,34.668,47.852,140.137,29.297
1678714572.469,165.039,46.387,55.664,219.727,61.035
1678714572.472,87.402,47.852,60.059,100.586,74.707
1678714572.476,-36.133,36.621,52.734,-62.988,10.742
1678714572.480,-31.738,32.715,53.711,-42.480,-18.066
1678714572.484,85.449,27.344,53.223,113.770,52.246
1678714572.488,159.668,27.344,52.734,214.355,65.918
1678714572.492,109.375,34.180,58.105,138.184,63.477
1678714572.496,-28.809,27.832,54.688,-44.922,41.016
1678714572.500,-67.871,28.320,52.734,-71.289,13.184
1678714572.504,46.875,39.062,50.293,85.449,20.020
1678714572.508,121.094,40.527,48.340,187.012,42.480
1678714572.512,66.895,41.504,55.176,111.328,36.133
1678714572.515,-44.922,40.039,56.152,-48.340,-26.367
1678714572.519,-66.895,37.598,53.223,-84.473,-69.336
1678714572.523,48.828,45.898,47.852,49.805,-58.105
1678714572.527,148.926,47.852,45.410,189.453,43.945
1678714572.531,112.305,42.969,52.734,138.184,54.199
1678714572.535,-4.395,51.270,53.711,-48.828,15.625
1678714572.539,-50.781,54.688,50.781,-101.562,64.941
1678714572.543,37.598,44.434,53.223,43.457,53.711
1678714572.547,146.484,37.598,52.246,192.383,113.281
1678714572.551,124.512,38.574,50.293,157.227,183.594
1678714572.554,-4.883,43.457,53.223,-17.578,76.172
1678714572.558,-77.148,41.504,47.852,-98.633,-3.418
1678714572.562,3.906,40.039,44.434,12.207,50.293
1678714572.566,133.301,37.109,43.945,174.805,50.781
1678714572.570,138.184,37.109,41.992,169.434,87.402
1678714572.574,15.625,41.992,42.480,-10.742,74.707
1678714572.578,-67.383,44.922,41.992,-118.164,-25.391
1678714572.582,-4.883,37.109,41.016,-21.973,-75.195
1678714572.586,124.023,29.297,43.945,148.438,-5.371
1678714572.590,145.508,38.086,47.363,175.293,71.289
1678714572.594,39.062,51.270,42.969,21.484,41.016
1678714572.597,-53.223,55.664,48.828,-96.191,8.301
1678714572.601,-16.113,56.152,56.152,-34.180,0.488
1678714572.605,116.211,50.293,51.758,139.160,25.879
1678714572.609,159.180,40.527,50.293,189.941,69.824
1678714572.613,42.480,41.016,51.270,30.762,59.082
1678714572.617,-75.684,43.457,57.617,-103.516,-6.836
1678714572.621,-42.480,41.016,60.059,-56.152,21.484
1678714572.625,94.238,39.551,54.199,113.770,69.336
1678714572.629,164.062,43.457,51.758,185.547,49.316
1678714572.633,64.941,47.363,55.664,47.852,55.176
1678714572.636,-75.684,40.527,53.223,-110.352,20.996
1678714572.640,-66.406,42.969,49.805,-85.449,-35.645
1678714572.644,64.453,48.340,52.734,94.238,14.160
1678714572.648,140.137,41.016,43.945,191.895,30.273
1678714572.652,51.758,34.180,41.504,79.590,39.062
1678714572.656,-81.543,37.598,54.688,-76.172,3.418
1678714572.660,-84.961,48.340,56.641,-76.660,13.184
1678714572.664,39.551,46.875,47.852,74.219,46.387
1678714572.668,144.531,40.039,47.363,191.895,25.391
1678714572.672,86.914,38.574,55.176,98.633,52.734
1678714572.676,-66.406,37.598,58.594,-85.938,32.715
1678714572.679,-104.004,35.645,55.176,-100.586,-41.016
1678714572.683,37.109,44.922,59.082,80.566,-24.414
1678714572.687,137.695,53.711,45.898,192.383,39.062
1678714572.691,60.547,57.129,35.156,92.285,39.062
1678714572.695,-78.125,60.059,53.711,-70.312,13.184
1678714572.699,-141.602,50.781,52.246,-141.602,27.344
1678714572.703,-71.777,38.086,28.320,-37.109,12.695
1678714572.707,37.109,38.086,17.578,114.746,55.176
1678714572.711,43.457,49.316,12.695,87.891,82.031
1678714572.715,-104.492,53.711,15.625,-105.957,-37.109
1678714572.719,-192.383,55.664,0.488,-198.242,-36.133
1678714572.722,-83.496,60.547,-0.488,-62.500,25.879
1678714572.726,69.336,69.336,32.715,136.719,41.992
1678714572.730,61.035,58.105,25.391,130.371,85.449
1678714572.734,-90.332,47.852,7.324,-62.012,27.832
1678714572.738,-171.387,44.922,10.742,-172.363,-8.301
1678714572.742,-88.379,35.156,22.949,-70.801,-41.504
1678714572.746,62.500,41.504,20.508,121.094,-53.711
1678714572.750,100.586,49.805,8.789,152.344,87.891
1678714572.754,-11.230,48.340,13.184,-5.859,91.309
1678714572.758,-110.352,58.105,25.879,-120.605,36.621
1678714572.761,-64.941,59.082,40.039,-49.805,44.434
1678714572.765,76.660,46.875,29.785,128.418,27.832
1678714572.769,122.070,40.527,23.926,187.012,117.188
1678714572.773,3.906,31.738,27.832,30.273,95.215
1678714572.777,-105.957,36.621,18.555,-122.559,-2.441
1678714572.781,-82.031,36.133,31.738,-70.312,-10.742
1678714572.785,59.570,42.480,47.852,123.535,71.777
1678714572.789,136.230,55.176,50.781,211.914,187.500
1678714572.793,34.668,54.688,48.828,91.797,191.895
1678714572.797,-91.309,52.734,38.574,-69.336,93.750
1678714572.801,-82.520,49.316,42.969,-60.547,19.531
1678714572.804,51.270,38.086,43.457,98.633,38.086
1678714572.808,142.578,33.691,40.527,195.312,163.574
1678714572.812,67.871,41.504,46.387,92.285,89.355
1678714572.816,-68.359,54.199,43.457,-81.543,-27.832
1678714572.820,-87.891,51.270,40.039,-88.867,3.906
1678714572.824,32.715,44.922,40.527,83.008,33.203
1678714572.828,137.207,50.781,39.062,201.660,169.922
1678714572.832,83.984,47.852,33.203,113.770,133.789
1678714572.836,-62.012,45.410,43.945,-53.223,34.180
1678714572.840,-106.934,48.340,57.129,-94.238,-19.043
1678714572.844,13.184,56.641,38.574,46.387,-94.727
1678714572.847,129.883,55.664,31.250,189.941,98.633
1678714572.851,89.355,49.805,50.781,145.508,165.039
1678714572.855,-61.035,45.410,53.711,-37.109,37.109
1678714572.859,-128.906,35.645,48.340,-114.746,-35.156
1678714572.863,-23.926,43.457,48.340,26.367,-45.898
1678714572.867,114.746,51.758,50.781,174.805,120.117
1678714572.871,103.027,39.062,41.992,129.883,166.016
1678714572.875,-44.922,43.457,33.203,-43.457,-29.297
1678714572.879,-124.023,45.410,40.527,-126.465,-124.512
1678714572.883,-30.762,21.973,33.203,-18.555,-123.535
1678714572.886,109.863,27.344,34.180,131.836,38.086
1678714572.890,107.422,49.316,48.828,125.977,176.758
1678714572.894,-34.668,52.246,45.898,-35.156,1.465
1678714572.898,-125.000,58.105,41.016,-137.207,-99.121
1678714572.902,-48.340,66.406,46.875,-39.062,-46.875
1678714572.906,105.957,61.523,36.133,131.348,57.617
1678714572.910,133.301,49.805,19.043,138.184,149.414
1678714572.914,-4.395,56.152,34.180,-18.066,63.965
1678714572.918,-123.535,61.523,56.641,-140.625,-25.879
1678714572.922,-67.383,56.152,55.664,-77.637,-35.645
1678714572.926,88.867,60.059,47.363,92.773,26.367
1678714572.929,136.230,49.805,41.504,148.926,119.141
1678714572.933,20.508,49.316,43.457,20.996,60.547
1678714572.937,-114.746,64.453,38.574,-123.535,-31.738
1678714572.941,-87.402,53.711,33.691,-87.402,-52.246
1678714572.945,72.266,49.805,50.781,90.332,-6.836
1678714572.949,132.324,55.664,43.945,169.922,110.352
1678714572.953,31.250,63.477,47.363,45.898,114.258
1678714572.957,-93.262,61.035,64.453,-114.746,-21.484
1678714572.961,-101.562,38.086,51.758,-107.910,-67.871
1678714572.965,32.715,34.668,46.387,63.965,17.090
1678714572.968,131.836,53.711,47.363,169.434,89.844
1678714572.972,59.570,58.105,41.992,73.730,78.613
1678714572.976,-83.496,51.270,45.410,-88.379,-1.953
1678714572.980,-106.934,59.082,44.922,-99.121,-50.293
1678714572.984,23.438,56.152,37.598,54.199,-20.020
1678714572.988,120.117,48.828,32.227,168.457,54.199
1678714572.992,53.223,46.387,41.504,76.660,85.938
1678714572.996,-83.496,52.734,43.945,-99.609,23.438
1678714573.000,-115.234,55.664,38.574,-124.023,-47.363
1678714573.004,6.348,41.992,40.039,27.344,-11.230
1678714573.008,136.719,42.969,43.457,159.668,64.941
1678714573.011,103.027,58.594,55.664,113.770,32.227
1678714573.015,-47.363,44.922,50.781,-53.223,-32.715
1678714573.019,-104.492,37.109,34.668,-121.094,-36.621
1678714573.023,-2.930,44.922,40.527,5.859,27.832
1678714573.027,102.539,40.527,48.828,141.602,58.105
1678714573.031,88.379,44.434,50.781,114.258,74.219
1678714573.035,-48.340,52.734,52.246,-61.035,-34.180
1678714573.039,-136.230,53.711,52.246,-142.090,-95.703
1678714573.043,-47.363,39.062,39.551,-15.137,-57.129
1678714573.047,93.262,27.344,32.715,139.648,-2.930
1678714573.051,100.098,32.227,43.457,139.648,68.359
1678714573.054,-24.902,42.480,39.062,-7.324,-1.953
1678714573.058,-105.957,45.898,31.250,-111.328,-54.199
1678714573.062,-35.645,48.828,44.434,-36.621,0.000
1678714573.066,109.863,52.734,55.664,135.254,-2.930
1678714573.070,137.695,50.293,59.570,166.504,68.848
1678714573.074,6.348,50.781,50.293,1.465,76.660
1678714573.078,-107.422,47.363,38.086,-115.723,-35.156
1678714573.082,-66.895,35.645,38.574,-57.129,-3.418
1678714573.086,77.148,37.598,38.574,100.098,62.012
1678714573.090,132.812,45.898,41.992,160.645,72.754
1678714573.093,29.785,43.945,42.969,24.902,82.031
1678714573.097,-90.820,40.527,50.293,-112.305,34.180
1678714573.101,-76.172,42.969,49.805,-71.777,-36.133
1678714573.105,76.660,35.156,40.039,100.586,-17.090
1678714573.109,150.391,25.391,35.645,179.199,104.980
1678714573.113,41.992,35.156,36.621,54.688,70.312
1678714573.117,-87.891,54.199,53.711,-95.215,-53.223
1678714573.121,-98.633,43.457,50.293,-93.262,-0.977
1678714573.125,28.320,31.738,33.203,62.500,23.438
1678714573.129,123.047,34.180,40.527,171.875,64.453
1678714573.133,52.246,37.109,42.969,75.195,117.188
1678714573.136,-87.891,44.434,40.527,-86.426,48.340
1678714573.140,-109.863,43.945,44.434,-99.609,45.898
1678714573.144,35.645,38.086,48.340,57.617,37.109
1678714573.148,152.832,38.086,46.875,186.523,74.219
1678714573.152,82.031,38.086,37.598,96.191,64.941
1678714573.156,-82.031,30.762,30.762,-90.820,-46.387
1678714573.160,-123.535,41.992,42.969,-128.906,-59.570
1678714573.164,3.906,44.434,46.387,12.695,-49.805
1678714573.168,121.582,31.250,36.133,164.062,40.527
1678714573.172,72.754,37.109,33.691,117.676,99.609
1678714573.176,-63.965,47.363,40.039,-62.500,0.488
1678714573.179,-117.188,39.062,48.828,-130.371,-26.367
1678714573.183,-8.301,37.598,51.758,8.789,5.859
1678714573.187,137.207,50.293,50.781,172.363,47.363
1678714573.191,124.512,43.457,45.410,138.184,31.250
1678714573.195,-18.066,45.898,50.781,-26.855,-14.160
1678714573.199,-102.539,56.641,60.059,-115.723,-5.371
1678714573.203,-23.438,44.434,52.246,-20.020,-5.371
1678714573.207,119.141,35.156,40.039,154.297,36.621
1678714573.211,131.348,36.621,42.969,163.086,97.656
1678714573.215,-9.766,41.992,52.734,-16.113,16.602
1678714573.218,-115.723,44.922,46.387,-130.859,-86.914
1678714573.222,-51.758,48.340,41.504,-34.180,-39.551
1678714573.226,94.727,50.781,49.805,147.949,53.223
1678714573.230,126.953,36.621,51.270,176.270,96.680
1678714573.234,0.488,30.762,52.734,13.672,51.270
1678714573.238,-110.840,46.875,58.594,-120.605,7.324
1678714573.242,-62.012,45.898,49.805,-69.824,-15.137
1678714573.246,86.914,37.109,38.086,106.934,0.000
1678714573.250,136.719,36.133,38.574,169.922,82.031
1678714573.254,23.926,44.922,50.781,27.344,87.402
1678714573.258,-104.004,47.363,52.246,-118.164,39.062
1678714573.261,-56.641,66.406,55.176,-49.805,31.738
1678714573.265,89.844,66.406,51.270,123.047,35.156
1678714573.269,126.465,40.527,34.668,173.828,130.859
1678714573.273,23.926,46.387,46.387,55.176,159.668
1678714573.277,-108.887,55.664,58.594,-98.145,22.461
1678714573.281,-100.098,49.316,46.875,-86.426,-78.613
1678714573.285,52.734,49.805,39.551,83.496,-17.578
1678714573.289,139.648,45.898,32.715,178.223,130.859
1678714573.293,55.664,47.363,40.039,75.684,124.023
1678714573.297,-87.402,60.059,52.246,-95.215,14.648
1678714573.300,-110.352,47.852,49.805,-104.980,37.109
1678714573.304,20.020,37.598,35.156,55.664,55.176
1678714573.308,134.766,51.270,35.156,180.664,120.117
1678714573.312,78.613,58.594,47.363,116.211,128.418
1678714573.316,-76.660,47.363,39.062,-69.336,47.363
1678714573.320,-117.188,40.039,30.762,-114.746,-13.672
1678714573.324,17.090,45.898,36.133,44.922,-31.738
1678714573.328,147.461,58.594,38.574,173.340,30.273
1678714573.332,101.562,58.594,41.504,118.652,86.426
1678714573.336,-52.734,47.852,49.316,-56.152,44.434
1678714573.340,-111.328,50.781,47.363,-125.977,-36.621
1678714573.343,1.953,57.617,44.434,12.207,-45.898
1678714573.347,145.508,62.988,51.270,168.945,82.031
1678714573.351,132.812,59.570,59.082,139.648,90.332
1678714573.355,-20.508,50.293,58.594,-41.992,57.617
1678714573.359,-111.328,40.527,39.551,-138.184,-2.441
1678714573.363,-31.738,40.527,32.227,-30.273,-56.641
1678714573.367,106.445,51.270,35.645,133.301,23.926
1678714573.371,118.652,54.688,31.250,138.184,36.621
1678714573.375,-11.230,56.641,47.363,-19.531,20.020
1678714573.379,-108.398,59.570,58.594,-116.699,-6.836
1678714573.383,-45.410,58.105,50.293,-25.879,-48.828
1678714573.386,93.262,48.828,48.828,114.746,5.859
1678714573.390,115.234,40.039,39.062,130.859,34.180
1678714573.394,-10.254,41.016,33.691,-15.137,-27.344
1678714573.398,-116.699,50.293,39.062,-142.578,-47.363
1678714573.402,-62.500,51.270,37.598,-61.523,-4.395
1678714573.406,92.773,52.734,43.945,111.328,48.340
1678714573.410,134.277,50.293,42.480,139.160,64.453
1678714573.414,11.719,40.039,40.039,-8.301,40.527
1678714573.418,-112.305,32.715,43.457,-141.602,-12.695
1678714573.422,-86.914,30.273,35.156,-89.355,7.812
1678714573.425,73.730,46.387,36.621,87.891,31.738
1678714573.429,149.902,62.500,41.504,167.480,37.109
1678714573.433,37.109,58.105,41.504,36.621,31.250
1678714573.437,-107.910,45.898,38.574,-126.465,-8.301
1678714573.441,-105.957,35.645,34.180,-103.027,-32.715
1678714573.445,34.668,32.715,34.668,67.383,25.879
1678714573.449,122.559,38.574,34.180,162.598,101.074
1678714573.453,51.758,56.641,42.969,70.312,69.824
1678714573.457,-77.148,64.941,47.363,-92.773,-7.812
1678714573.461,-97.656,47.363,33.203,-112.793,-13.672
1678714573.465,25.391,30.762,20.508,38.086,39.062
1678714573.468,127.441,27.344,24.902,157.227,74.219
1678714573.472,75.195,36.621,35.156,82.520,75.195
1678714573.476,-60.059,35.645,45.898,-85.449,55.176
1678714573.480,-92.773,44.922,54.688,-113.281,22.949
1678714573.484,25.879,56.641,37.109,40.039,25.879
1678714573.488,142.090,46.387,20.996,175.781,80.566
1678714573.492,106.934,37.598,35.156,118.652,67.383
1678714573.496,-39.062,39.062,35.645,-55.176,28.320
1678714573.500,-104.980,42.480,36.133,-119.141,-3.418
1678714573.504,-11.230,37.109,29.785,2.930,5.371
1678714573.508,121.582,41.016,35.156,155.273,14.160
1678714573.511,107.910,45.898,47.852,123.047,15.137
1678714573.515,-32.227,44.434,44.922,-47.852,-37.598
1678714573.519,-107.910,41.992,35.645,-128.418,-124.023
1678714573.523,-25.879,33.203,27.832,-31.250,-118.164
1678714573.527,106.934,32.715,30.762,131.348,-21.484
1678714573.531,112.793,44.922,37.109,136.230,28.320
1678714573.535,-9.277,51.270,43.945,-24.414,27.832
1678714573.539,-103.516,36.621,44.434,-117.676,23.926
1678714573.543,-43.457,28.320,30.762,-35.156,27.344
1678714573.547,104.492,42.969,41.504,131.836,30.273
1678714573.550,123.535,47.363,57.129,167.480,69.336
1678714573.554,-16.602,38.574,46.387,-0.977,89.844
1678714573.558,-125.000,43.457,38.574,-128.906,7.812
1678714573.562,-83.008,35.156,40.039,-67.871,-34.668
1678714573.566,61.523,23.438,39.062,89.355,10.742
1678714573.570,125.000,31.250,42.969,144.043,55.664
1678714573.574,15.137,32.227,50.293,20.020,38.574
1678714573.578,-106.445,36.621,52.246,-114.258,14.160
1678714573.582,-64.941,52.246,53.711,-66.406,11.719
1678714573.586,83.008,55.664,48.828,105.469,8.789
1678714573.590,141.602,39.062,38.086,168.945,22.949
1678714573.593,44.434,33.691,47.363,47.852,18.066
1678714573.597,-76.172,36.133,37.598,-100.586,4.395
1678714573.601,-63.477,43.945,25.391,-81.543,42.969
1678714573.605,70.801,40.039,37.109,71.777,40.039
1678714573.609,150.879,37.109,41.992,156.250,35.156
1678714573.613,61.035,41.992,48.340,58.105,67.871
1678714573.617,-89.844,35.645,45.410,-93.750,52.246
1678714573.621,-107.422,34.180,44.434,-99.121,35.156
1678714573.625,19.043,41.504,42.480,50.293,36.621
1678714573.629,129.883,41.504,36.133,174.805,72.266
1678714573.632,97.168,55.664,51.758,117.676,83.984
1678714573.636,-49.805,58.105,58.594,-56.152,38.574
1678714573.640,-108.398,38.086,34.180,-108.398,61.523
1678714573.644,13.184,36.133,28.809,28.320,54.688
1678714573.648,142.090,32.227,35.645,163.574,37.109
1678714573.652,109.863,28.320,30.273,112.305,21.973
1678714573.656,-33.203,30.273,45.410,-55.664,12.207
1678714573.660,-97.168,41.016,56.152,-110.352,-21.973
1678714573.664,5.859,49.316,58.594,20.508,-46.875
1678714573.668,127.441,39.551,60.059,161.133,10.254
1678714573.672,99.121,38.086,47.363,126.465,54.199
1678714573.675,-40.527,38.574,37.598,-41.504,52.246
1678714573.679,-116.211,37.109,40.039,-132.812,-2.930
1678714573.683,-27.832,43.945,39.551,-19.531,53.223
1678714573.687,113.281,44.922,36.621,148.926,85.938
1678714573.691,138.184,51.270,34.180,156.250,59.082
1678714573.695,5.859,58.105,36.621,-1.953,67.383
1678714573.699,-109.375,41.504,47.363,-121.094,0.000
1678714573.703,-46.387,26.855,47.852,-40.039,2.441
1678714573.707,109.375,30.762,38.574,137.695,55.176
1678714573.711,145.508,20.020,22.461,168.945,67.383
1678714573.715,10.742,29.297,22.949,8.301,53.711
1678714573.718,-108.398,44.434,37.598,-119.141,17.090
1678714573.722,-46.875,41.016,37.109,-45.410,-15.625
1678714573.726,105.957,61.035,43.945,135.742,52.246
1678714573.730,135.742,63.477,51.758,185.547,18.555
1678714573.734,3.906,40.039,42.969,25.879,-56.641
1678714573.738,-123.535,27.832,36.621,-124.512,-6.348
1678714573.742,-90.820,29.297,40.527,-68.359,58.594
1678714573.746,60.547,41.504,45.898,110.352,75.195
1678714573.750,142.578,51.758,47.852,185.059,47.852
1678714573.754,50.781,51.758,58.594,72.754,36.133
1678714573.757,-87.402,37.109,51.758,-71.777,45.898
1678714573.761,-89.844,23.926,36.133,-72.754,45.898
1678714573.765,37.598,22.461,32.227,68.848,33.691
1678714573.769,136.230,35.156,37.598,176.758,79.590
1678714573.773,61.035,45.898,42.969,89.844,66.895
1678714573.777,-80.566,48.340,37.598,-65.430,-31.250
1678714573.781,-84.961,45.898,46.387,-66.406,-3.418
1678714573.785,49.316,37.109,47.852,81.543,39.062
1678714573.789,148.926,33.691,40.527,184.570,34.180
1678714573.793,79.102,52.246,47.852,104.004,29.785
1678714573.797,-68.848,54.199,51.270,-65.430,-22.949
1678714573.800,-101.074,40.527,41.016,-99.609,-2.930
1678714573.804,9.277,43.945,31.738,31.250,16.602
1678714573.808,115.234,51.270,28.809,157.227,16.113
1678714573.812,88.379,54.199,38.086,112.793,36.621
1678714573.816,-39.062,57.129,51.758,-50.781,-14.648
1678714573.820,-104.004,50.781,47.363,-117.188,16.113
1678714573.824,-6.836,51.270,44.434,0.000,21.973
1678714573.828,124.023,50.293,44.922,145.508,17.578
1678714573.832,111.328,44.434,41.016,124.512,66.895
1678714573.836,-16.602,53.223,46.387,-31.250,40.527
1678714573.840,-93.262,58.594,47.852,-125.977,15.625
1678714573.843,-14.648,55.176,45.410,-23.438,30.273
1678714573.847,132.812,62.012,54.199,153.320,47.852
1678714573.851,147.461,48.828,47.852,164.062,13.672
1678714573.855,-5.371,27.832,44.434,-7.812,32.715
1678714573.859,-132.812,28.809,41.504,-145.996,-6.836
1678714573.863,-66.895,33.691,44.434,-57.129,-0.488
1678714573.867,84.961,40.039,50.293,126.465,96.191
1678714573.871,105.469,32.715,41.992,146.484,20.020
1678714573.875,-15.625,33.203,48.340,0.977,-3.418
1678714573.879,-118.164,41.016,62.012,-119.141,25.391
1678714573.882,-78.613,25.879,49.316,-70.312,6.348
1678714573.886,64.941,17.090,41.504,96.680,-34.668
1678714573.890,130.371,25.879,49.805,168.457,-11.719
1678714573.894,26.855,35.156,49.316,36.133,-3.418
1678714573.898,-95.215,41.504,39.551,-104.980,-30.273
1678714573.902,-76.172,36.621,26.855,-70.312,34.180
1678714573.906,60.547,36.621,33.203,93.262,46.875
1678714573.910,136.230,30.762,39.551,177.246,60.547
1678714573.914,43.945,30.273,42.969,62.500,34.668
1678714573.918,-85.938,36.621,49.805,-90.332,-33.691
1678714573.922,-82.031,41.016,51.270,-81.543,-18.555
1678714573.925,40.527,43.945,48.340,72.266,40.039
1678714573.929,122.559,36.133,30.762,167.969,49.805
1678714573.933,55.176,38.086,26.367,75.195,26.855
1678714573.937,-68.848,36.133,37.598,-78.613,-9.277
1678714573.941,-81.543,32.715,41.016,-83.984,8.301
1678714573.945,31.738,37.109,30.762,52.734,83.008
