timestamps,TP9,AF7,AF8,TP10,Right AUX
1688994410.295,58.594,341.309,103.516,41.016,21.484
1688994410.299,62.500,314.941,93.262,41.504,41.992
1688994410.303,61.523,324.219,86.914,44.922,33.203
1688994410.307,57.617,305.664,72.754,44.434,-4.395
1688994410.311,51.758,271.484,51.270,36.133,30.762
1688994410.315,53.711,274.414,45.898,35.645,0.000
1688994410.319,49.805,256.348,48.340,41.992,-7.812
1688994410.323,52.734,227.539,48.340,46.387,73.730
1688994410.327,56.152,236.328,56.641,49.316,55.176
1688994410.330,53.223,223.145,46.875,33.691,6.348
1688994410.334,52.734,213.867,37.109,26.367,21.973
1688994410.338,55.664,192.871,39.551,32.715,16.113
1688994410.342,45.898,170.410,21.484,32.715,3.906
1688994410.346,52.246,201.172,26.855,38.574,31.250
1688994410.350,59.570,216.797,50.781,25.391,52.246
1688994410.354,43.457,205.078,42.969,6.836,17.090
1688994410.358,29.297,204.102,26.855,0.977,59.082
1688994410.362,41.504,224.609,28.809,6.348,68.848
1688994410.366,54.688,226.562,33.691,19.043,34.180
1688994410.370,46.875,203.125,32.715,21.973,21.973
1688994410.373,49.805,190.430,34.180,21.973,50.293
1688994410.377,55.664,210.449,31.738,24.902,81.055
1688994410.381,55.176,211.426,20.020,27.832,24.902
1688994410.385,52.734,197.754,19.043,28.320,21.484
1688994410.389,44.434,195.801,36.133,8.301,30.273
1688994410.393,36.621,202.637,43.457,1.953,13.184
1688994410.397,34.180,202.637,33.691,10.742,21.484
1688994410.401,48.340,221.680,34.180,13.672,14.160
1688994410.405,65.918,258.301,48.340,25.879,-23.438
1688994410.409,59.570,247.559,39.062,9.277,-22.949
1688994410.413,35.156,227.051,20.996,-12.207,17.090
1688994410.416,20.508,239.258,10.742,-11.230,4.883
1688994410.420,30.273,260.742,5.371,-4.395,6.836
1688994410.424,25.391,277.832,10.742,5.859,58.105
1688994410.428,3.418,285.645,18.555,-12.207,105.957
1688994410.432,-6.348,290.527,27.832,-22.949,77.637
1688994410.436,-6.836,290.039,28.320,-16.602,48.340
1688994410.440,-4.395,277.832,19.531,-23.926,72.266
1688994410.444,-1.953,278.320,20.508,-24.414,-3.906
1688994410.448,-5.859,276.855,22.949,-32.715,-10.254
1688994410.452,-11.230,270.508,21.973,-36.133,26.855
1688994410.455,-4.395,267.090,11.230,-17.578,57.129
1688994410.459,0.488,254.883,7.812,-12.695,69.824
1688994410.463,-4.395,243.652,14.160,-27.344,16.602
1688994410.467,-1.953,237.793,14.160,-38.086,-6.348
1688994410.471,-7.324,230.469,16.113,-39.062,12.695
1688994410.475,-11.230,230.957,14.160,-34.180,29.297
1688994410.479,-4.883,228.516,8.301,-26.855,24.414
1688994410.483,-4.395,221.191,3.906,-23.926,16.113
1688994410.487,-12.207,213.867,-2.930,-31.250,-5.859
1688994410.491,-15.137,208.008,-1.953,-36.133,29.785
1688994410.495,-12.207,202.148,-1.465,-33.203,56.152
1688994410.498,-4.883,194.824,-7.324,-20.020,-7.324
1688994410.502,-1.465,187.988,-8.789,-12.695,-46.387
1688994410.506,-12.695,186.523,-14.648,-20.020,49.316
1688994410.510,-10.742,190.918,-14.648,-28.809,50.293
1688994410.514,-4.395,185.547,-14.160,-25.391,-25.391
1688994410.518,-6.348,174.316,-9.277,-14.648,38.574
1688994410.522,2.930,173.340,-4.883,-6.348,54.688
1688994410.526,15.137,172.363,-8.789,-3.906,16.602
1688994410.530,23.926,157.227,-4.883,-3.906,63.477
1688994410.534,24.902,146.484,-4.395,12.207,63.477
1688994410.537,27.832,151.367,-16.602,20.996,6.836
1688994410.541,30.273,148.926,-19.043,19.043,43.945
1688994410.545,27.832,143.066,-6.836,22.949,108.887
1688994410.549,30.762,139.160,-8.301,16.113,38.574
1688994410.553,35.645,132.812,-14.648,9.766,23.926
1688994410.557,36.133,124.023,-16.113,16.113,67.383
1688994410.561,43.945,118.164,-15.137,17.578,12.207
1688994410.565,46.387,118.652,-18.555,11.719,46.387
1688994410.569,32.227,103.516,-25.391,-4.395,41.016
1688994410.573,26.367,84.961,-25.879,0.000,-15.137
1688994410.577,33.691,91.309,-27.832,18.555,5.371
1688994410.580,28.809,98.633,-27.344,9.766,-1.465
1688994410.584,18.066,95.215,-26.367,-2.441,29.297
1688994410.588,18.066,98.145,-28.320,-1.465,62.500
1688994410.592,20.020,88.379,-31.738,-4.395,48.340
1688994410.596,20.508,66.895,-34.180,0.488,74.707
1688994410.600,16.602,70.801,-25.391,10.254,52.246
1688994410.604,20.020,87.402,-20.020,0.000,-41.992
1688994410.608,24.414,93.750,-23.438,-4.395,-26.367
1688994410.612,0.000,85.938,-22.949,-2.441,-13.184
1688994410.616,-3.906,69.824,-26.367,6.348,-49.316
1688994410.620,14.648,62.500,-29.785,18.555,-14.648
1688994410.623,27.344,63.477,-20.996,17.090,6.348
1688994410.627,27.344,67.871,-20.020,9.277,49.316
1688994410.631,17.090,78.613,-30.273,8.789,60.547
1688994410.635,19.531,81.055,-24.902,15.137,-10.254
1688994410.639,23.438,63.965,-22.461,10.742,5.859
1688994410.643,19.531,61.035,-25.879,4.883,-12.695
1688994410.647,28.320,82.520,-10.742,21.484,-11.230
1688994410.651,36.133,88.867,1.953,31.250,20.020
1688994410.655,31.738,74.219,-6.836,8.789,34.180
1688994410.659,40.039,58.594,-12.207,10.254,64.941
1688994410.662,36.133,63.477,-10.254,16.602,59.082
1688994410.666,26.367,65.918,-6.348,5.859,27.832
1688994410.670,29.297,60.547,-4.395,17.090,36.133
1688994410.674,28.809,71.777,-7.812,20.020,78.613
1688994410.678,28.809,83.496,-9.277,22.949,56.152
1688994410.682,31.738,81.055,-0.488,34.180,1.953
1688994410.686,22.949,72.266,-1.465,18.555,-34.668
1688994410.690,12.207,68.359,-7.812,-0.977,-50.293
1688994410.694,10.742,68.359,-6.348,-2.441,-32.227
1688994410.698,20.996,72.266,-5.371,-5.371,61.035
1688994410.702,20.996,76.660,-1.953,-3.418,86.426
1688994410.705,16.602,73.730,0.977,-7.324,34.180
1688994410.709,20.996,72.754,-2.930,-12.695,30.762
1688994410.713,19.531,60.547,-2.930,-11.230,26.855
1688994410.717,13.672,51.758,2.441,-12.207,-8.789
1688994410.721,7.324,60.547,0.977,-16.602,-17.090
1688994410.725,2.441,64.941,-2.441,-12.695,35.156
1688994410.729,4.395,75.684,1.465,-13.184,25.391
1688994410.733,11.230,75.684,-0.977,-18.066,38.574
1688994410.737,11.719,67.871,0.000,-3.418,42.480
1688994410.741,15.137,66.406,3.906,8.301,52.734
1688994410.745,23.926,55.664,8.789,7.324,52.246
1688994410.748,28.320,48.828,8.301,7.812,69.336
1688994410.752,20.020,62.012,9.766,6.348,42.969
1688994410.756,17.090,72.754,22.461,10.742,36.621
1688994410.760,19.531,71.777,18.555,13.672,57.617
1688994410.764,8.789,66.895,4.883,6.836,31.738
1688994410.768,8.789,56.152,-0.977,10.254,3.418
1688994410.772,20.508,39.062,0.000,18.555,0.977
1688994410.776,28.809,43.457,6.348,30.762,54.199
1688994410.780,32.227,58.594,15.625,42.480,49.316
1688994410.784,24.902,50.781,10.254,38.574,4.883
1688994410.787,40.039,50.781,16.113,40.039,-1.953
1688994410.791,42.480,46.387,20.020,41.016,-14.648
1688994410.795,51.270,16.113,-1.465,46.875,1.465
1688994410.799,107.910,28.320,-10.254,92.773,101.074
1688994410.803,81.055,57.129,9.766,77.637,119.141
1688994410.807,24.414,71.289,28.320,20.996,7.324
1688994410.811,34.668,63.477,41.016,43.945,-26.367
1688994410.815,39.062,55.176,55.176,61.035,30.762
1688994410.819,24.414,58.594,28.809,29.785,60.059
1688994410.823,11.719,36.133,13.184,5.371,37.598
1688994410.827,-40.039,0.000,2.930,-46.387,-27.832
1688994410.830,-54.688,16.602,-3.418,-55.176,-24.902
1688994410.834,-8.789,40.039,28.320,-8.789,78.125
1688994410.838,-9.277,1.465,29.785,5.859,52.246
1688994410.842,-26.367,-30.273,14.160,-6.348,31.738
1688994410.846,-3.418,-35.645,28.320,0.000,17.578
1688994410.850,0.977,-14.648,27.832,-2.930,-22.461
1688994410.854,-5.371,34.668,13.184,0.488,47.852
1688994410.858,9.277,55.176,5.859,30.762,47.363
1688994410.862,28.320,44.434,10.742,42.480,42.480
1688994410.866,36.621,-1.953,15.625,46.387,76.660
1688994410.869,37.109,-28.809,11.719,61.523,53.711
1688994410.873,52.734,-28.320,8.301,66.406,7.812
1688994410.877,68.848,-12.207,30.273,81.055,18.555
1688994410.881,70.801,-7.324,39.062,104.492,50.781
1688994410.885,50.781,-41.504,7.812,65.918,45.410
1688994410.889,31.738,-10.254,13.184,33.203,72.266
1688994410.893,53.711,14.648,30.762,60.547,71.777
1688994410.897,58.594,10.254,24.902,77.148,68.359
1688994410.901,32.227,42.480,-9.277,67.871,79.590
1688994410.905,33.203,75.195,-21.973,56.641,59.082
1688994410.909,56.641,4.883,31.250,63.477,4.395
1688994410.912,98.145,-18.555,67.871,116.699,62.988
1688994410.916,123.535,89.844,46.875,133.789,124.512
1688994410.920,53.711,98.633,14.160,50.781,27.832
1688994410.924,4.395,165.039,22.949,15.137,39.062
1688994410.928,-0.977,228.027,34.668,23.438,75.684
1688994410.932,0.000,214.844,30.762,26.367,47.363
1688994410.936,8.789,189.941,33.691,38.574,75.195
1688994410.940,29.297,164.062,53.711,53.223,57.617
1688994410.944,41.992,177.246,62.988,61.523,39.551
1688994410.948,40.039,204.102,58.594,56.641,52.734
1688994410.952,42.480,201.172,57.129,51.758,46.387
1688994410.955,44.922,195.312,63.965,61.035,43.945
1688994410.959,45.410,183.105,72.266,68.359,28.320
1688994410.963,44.434,178.711,74.707,72.754,48.828
1688994410.967,38.086,191.895,73.242,67.383,19.531
1688994410.971,25.879,200.684,74.219,56.641,16.113
1688994410.975,25.391,197.266,72.754,53.711,68.848
1688994410.979,29.785,190.430,65.918,54.688,20.996
1688994410.983,25.391,190.430,58.594,44.922,-0.977
1688994410.987,26.367,190.918,53.223,36.133,5.371
1688994410.991,21.973,182.617,51.758,29.785,-22.461
1688994410.994,23.438,176.758,45.898,34.180,13.672
1688994410.998,44.434,168.457,43.945,48.828,70.801
1688994411.002,50.781,159.180,43.457,41.992,-14.648
1688994411.006,25.391,164.062,34.668,6.348,7.324
1688994411.010,1.465,166.504,32.227,-22.461,74.707
1688994411.014,0.488,163.574,30.762,-29.297,44.922
1688994411.018,12.695,163.086,25.391,-20.020,7.324
1688994411.022,9.766,168.945,26.367,-9.277,0.977
1688994411.026,-1.465,168.945,25.391,-13.672,18.555
1688994411.030,7.324,158.203,30.273,-23.438,58.105
1688994411.034,5.859,158.203,31.250,-24.902,81.543
1688994411.037,3.418,164.551,27.344,-22.461,3.418
1688994411.041,9.766,158.203,29.785,-23.438,-22.949
1688994411.045,6.348,151.855,33.203,-35.156,28.320
1688994411.049,3.906,150.391,39.062,-36.133,20.508
1688994411.053,6.348,153.809,35.156,-34.180,-3.906
1688994411.057,6.348,148.926,28.320,-30.273,-15.137
1688994411.061,7.812,139.648,32.227,-22.949,-5.371
1688994411.065,7.324,139.160,34.668,-30.273,-35.156
1688994411.069,6.348,132.812,36.621,-25.879,-3.906
1688994411.073,8.789,123.047,37.598,-20.508,33.691
1688994411.077,13.184,120.117,40.039,-20.508,23.926
1688994411.080,16.113,103.516,47.363,-6.348,10.742
1688994411.084,13.184,91.797,46.387,-6.348,33.203
1688994411.088,12.207,106.934,40.527,-10.254,54.688
1688994411.092,17.578,122.559,37.109,-5.371,11.719
1688994411.096,28.809,117.188,32.715,0.977,37.109
1688994411.100,20.508,93.750,29.785,9.766,47.852
1688994411.104,10.742,96.191,23.438,7.324,-11.230
1688994411.108,11.230,111.328,18.066,1.953,60.547
1688994411.112,17.090,109.375,18.066,8.301,58.105
1688994411.116,30.762,106.445,18.555,16.113,21.973
1688994411.119,26.855,94.727,17.578,21.973,34.180
1688994411.123,29.297,68.359,16.113,21.484,6.836
1688994411.127,33.203,54.688,17.090,15.625,42.480
1688994411.131,25.391,65.430,14.160,14.160,-42.480
1688994411.135,22.949,83.984,9.277,12.207,-77.637
1688994411.139,22.461,87.402,13.184,10.254,17.090
1688994411.143,20.996,76.660,11.719,11.719,62.012
1688994411.147,19.043,72.754,5.371,4.395,2.930
1688994411.151,26.855,64.941,11.719,5.859,-13.184
1688994411.155,26.367,58.594,19.531,13.672,45.410
1688994411.159,23.438,59.570,21.484,14.648,-2.930
1688994411.162,34.668,55.664,24.902,16.113,8.301
1688994411.166,32.715,53.711,30.273,12.695,59.082
1688994411.170,24.902,56.152,24.902,12.695,25.391
1688994411.174,23.438,45.410,15.625,10.742,30.273
1688994411.178,22.461,32.715,14.648,11.230,12.695
1688994411.182,23.438,33.691,17.090,9.277,15.625
1688994411.186,26.367,34.668,15.625,2.441,22.949
1688994411.190,17.578,31.738,15.625,3.418,60.059
1688994411.194,14.648,34.180,15.137,5.371,66.895
1688994411.198,16.113,41.504,14.648,11.230,33.203
1688994411.201,11.719,39.062,16.113,11.719,43.457
1688994411.205,20.020,31.738,15.137,6.836,52.734
1688994411.209,19.531,33.691,12.695,-3.906,30.273
1688994411.213,21.973,39.551,15.625,0.000,28.809
1688994411.217,28.320,40.527,22.461,14.648,131.348
1688994411.221,21.973,39.551,26.855,18.066,87.891
1688994411.225,19.043,45.410,27.344,11.230,-3.906
1688994411.229,26.367,49.805,30.762,9.277,61.035
1688994411.233,27.832,49.316,27.344,14.160,125.977
1688994411.237,31.738,45.410,25.879,22.461,44.434
1688994411.241,40.039,44.434,28.320,22.949,11.230
1688994411.244,51.758,41.992,24.414,24.414,55.176
1688994411.248,71.777,22.461,29.297,61.035,3.906
1688994411.252,78.613,24.902,32.227,75.195,22.949
1688994411.256,55.176,59.082,23.926,31.738,63.477
1688994411.260,34.668,62.988,21.973,5.371,42.969
1688994411.264,41.504,55.664,16.113,22.461,63.965
1688994411.268,44.922,57.129,8.301,19.043,68.848
1688994411.272,34.668,58.105,7.812,-4.395,-9.277
1688994411.276,36.133,57.129,4.395,0.977,-19.043
1688994411.280,40.527,50.781,2.930,1.953,24.414
1688994411.284,32.227,50.293,3.418,-11.230,-6.836
1688994411.287,36.621,49.805,-4.883,-11.719,-10.742
1688994411.291,47.852,38.574,-4.883,-4.883,-4.883
1688994411.295,40.527,34.668,12.695,-4.883,-3.418
1688994411.299,23.438,31.738,24.902,-9.277,12.695
1688994411.303,8.789,31.738,19.043,-19.043,29.785
1688994411.307,9.277,31.250,8.789,-18.555,54.688
1688994411.311,16.113,26.367,3.418,-13.184,45.410
1688994411.315,18.066,29.785,1.953,-6.348,-19.043
1688994411.319,20.020,36.133,1.953,1.465,-49.805
1688994411.323,28.320,39.551,-2.441,2.930,-21.973
1688994411.326,31.738,37.598,-1.953,6.836,-6.348
1688994411.330,31.738,33.691,4.395,6.836,57.129
1688994411.334,30.762,36.621,8.789,16.113,30.273
1688994411.338,34.180,36.133,16.602,26.367,10.742
1688994411.342,39.551,34.180,23.926,18.555,53.711
1688994411.346,38.574,38.574,25.391,12.207,8.301
1688994411.350,37.598,51.270,25.879,2.930,7.324
1688994411.354,43.945,59.570,25.879,15.625,53.711
1688994411.358,39.551,56.152,26.855,21.484,5.371
1688994411.362,38.574,56.641,23.438,4.395,16.602
1688994411.366,51.758,49.805,20.996,9.766,75.684
1688994411.369,51.270,42.969,18.066,11.230,15.625
1688994411.373,34.180,43.945,12.695,10.742,-20.020
1688994411.377,25.879,42.969,15.625,15.625,44.434
1688994411.381,24.414,39.062,14.648,10.254,25.879
1688994411.385,13.672,27.344,15.625,9.277,-0.977
1688994411.389,16.113,21.973,20.020,4.395,-1.465
1688994411.393,14.648,30.762,21.973,1.465,-2.441
1688994411.397,8.789,36.133,21.973,6.836,-1.953
1688994411.401,8.301,41.016,20.020,-0.488,22.949
1688994411.405,12.207,46.387,19.531,-0.977,89.844
1688994411.409,13.184,43.945,17.578,-2.441,81.055
1688994411.412,6.836,37.109,17.090,3.906,22.461
1688994411.416,16.602,30.762,18.066,17.578,-23.438
1688994411.420,23.438,21.484,17.578,12.207,11.230
1688994411.424,27.344,14.160,20.020,6.836,59.082
1688994411.428,33.203,21.484,23.438,2.441,81.543
1688994411.432,32.715,20.996,21.484,7.812,49.316
1688994411.436,31.738,18.555,22.949,19.531,46.387
1688994411.440,38.086,22.949,23.926,28.320,61.523
1688994411.444,47.852,28.320,22.461,29.785,12.207
1688994411.448,40.039,29.297,24.414,16.113,14.648
1688994411.451,37.109,32.715,28.809,15.625,42.480
1688994411.455,48.828,35.156,33.691,32.227,7.812
1688994411.459,43.945,29.785,28.809,40.039,-38.574
1688994411.463,38.086,24.902,23.926,24.902,5.859
1688994411.467,28.809,21.973,27.832,24.414,43.945
1688994411.471,24.902,17.578,32.715,37.598,57.129
1688994411.475,40.039,16.113,36.133,44.434,97.168
1688994411.479,49.805,16.602,37.598,49.805,84.473
1688994411.483,46.875,16.113,38.574,42.480,35.645
1688994411.487,43.457,17.578,38.574,38.086,57.617
1688994411.491,35.645,11.719,40.039,41.504,94.238
1688994411.494,42.969,10.742,46.387,40.527,49.316
1688994411.498,42.480,9.277,48.828,50.293,71.777
1688994411.502,36.133,7.812,45.410,55.176,12.207
1688994411.506,42.969,13.184,51.758,31.250,7.324
1688994411.510,42.969,15.137,58.105,18.066,87.402
1688994411.514,37.109,18.066,57.617,30.762,36.133
1688994411.518,27.832,17.090,54.199,37.598,23.438
1688994411.522,29.297,12.207,47.852,31.738,34.180
1688994411.526,33.691,7.812,45.898,8.301,39.062
1688994411.530,35.156,6.348,46.875,-0.488,18.066
1688994411.533,38.574,7.324,43.457,19.043,-30.762
1688994411.537,32.227,5.859,36.621,32.227,3.418
1688994411.541,27.832,9.277,36.133,24.902,53.223
1688994411.545,22.949,14.160,40.527,10.742,47.852
1688994411.549,26.855,13.184,38.574,6.836,57.129
1688994411.553,32.715,9.277,42.969,15.625,64.453
1688994411.557,31.250,10.254,50.293,26.855,8.789
1688994411.561,18.555,9.766,53.223,31.738,1.953
1688994411.565,17.090,8.789,52.734,23.438,59.570
1688994411.569,27.832,8.301,52.246,11.230,78.613
1688994411.573,24.414,9.766,51.758,19.531,2.441
1688994411.576,24.902,15.625,46.875,24.902,19.531
1688994411.580,22.461,11.230,43.945,22.949,58.594
1688994411.584,22.949,6.348,42.480,19.531,5.371
1688994411.588,28.320,16.602,45.898,15.137,-10.742
1688994411.592,30.762,18.555,47.852,17.578,5.859
1688994411.596,15.625,-0.977,41.504,24.414,42.969
1688994411.600,7.324,1.465,35.645,19.043,2.930
1688994411.604,16.113,21.484,40.527,12.207,24.414
1688994411.608,31.250,20.996,49.316,13.184,108.398
1688994411.612,28.809,31.738,49.805,26.367,87.402
1688994411.616,12.695,43.945,48.828,34.180,67.383
1688994411.619,16.113,42.969,43.945,17.090,62.500
1688994411.623,28.809,38.086,41.504,15.137,73.242
1688994411.627,28.809,30.273,45.410,20.020,28.320
1688994411.631,7.812,41.016,35.156,23.438,12.207
1688994411.635,15.137,51.270,27.832,21.973,20.996
1688994411.639,37.109,30.762,33.203,42.969,-13.672
1688994411.643,48.828,19.043,38.574,40.527,-15.625
1688994411.647,104.004,73.242,80.078,81.055,-10.254
1688994411.651,137.207,66.406,99.121,150.391,4.395
1688994411.655,78.125,30.762,51.758,97.168,61.523
1688994411.658,17.090,28.320,21.484,35.156,81.055
1688994411.662,20.020,14.160,39.062,31.738,35.156
1688994411.666,17.578,124.023,47.852,20.020,2.930
1688994411.670,25.391,232.422,19.043,15.625,36.621
1688994411.674,155.762,167.480,76.172,148.438,36.621
1688994411.678,211.426,94.238,123.535,229.004,18.066
1688994411.682,114.746,45.898,59.570,134.277,36.133
1688994411.686,96.191,185.547,1.953,92.285,34.668
1688994411.690,120.605,366.211,23.438,136.719,28.809
1688994411.694,-8.301,340.332,17.090,29.297,34.180
1688994411.698,-104.980,349.609,2.441,-74.707,51.758
1688994411.701,-59.570,304.688,26.855,-25.391,118.164
1688994411.705,-17.090,215.332,55.176,33.691,65.430
1688994411.709,-11.719,183.105,87.891,40.527,-18.066
1688994411.713,25.391,223.633,126.953,95.703,15.625
1688994411.717,139.160,398.438,213.867,217.773,20.996
1688994411.721,112.793,459.473,197.754,182.129,3.418
1688994411.725,14.160,344.238,151.855,109.375,-34.668
1688994411.729,-30.273,279.785,146.484,77.148,-15.137
1688994411.733,-45.410,298.340,123.047,60.059,33.691
1688994411.737,-15.137,302.246,135.254,85.938,21.973
1688994411.741,14.160,287.109,155.273,102.051,53.711
1688994411.744,12.695,286.133,163.574,106.934,76.660
1688994411.748,10.254,262.695,161.621,117.676,11.719
1688994411.752,32.227,242.676,163.086,138.672,0.488
1688994411.756,49.316,223.633,161.133,147.461,17.578
1688994411.760,44.434,193.359,150.391,138.672,39.062
1688994411.764,43.457,172.363,146.484,133.789,64.941
1688994411.768,51.270,159.668,143.066,127.930,41.016
1688994411.772,62.012,153.809,136.230,137.207,17.090
1688994411.776,69.824,138.672,126.465,142.090,34.180
1688994411.780,74.219,114.746,115.234,129.883,68.848
1688994411.783,88.379,100.586,99.609,127.930,74.219
1688994411.787,93.262,78.613,85.449,130.859,53.223
1688994411.791,80.566,60.059,75.195,125.000,1.953
1688994411.795,75.195,45.410,66.406,135.254,-11.230
1688994411.799,72.754,23.438,61.035,128.906,56.641
1688994411.803,73.242,12.207,56.152,106.934,49.805
1688994411.807,71.777,2.930,46.875,98.633,-30.273
1688994411.811,66.895,-6.836,44.922,88.379,-30.273
1688994411.815,59.570,-12.207,47.852,81.543,68.848
1688994411.819,54.199,-21.973,43.457,69.824,93.262
1688994411.823,62.012,-38.086,40.527,55.176,84.473
1688994411.826,64.941,-27.832,37.109,47.363,65.430
1688994411.830,54.688,-20.996,33.203,35.156,15.625
1688994411.834,54.688,-23.926,29.297,22.949,3.418
1688994411.838,53.711,-18.066,24.414,15.625,66.895
1688994411.842,49.316,-7.324,16.113,1.465,47.363
1688994411.846,40.527,1.953,8.789,-13.184,13.184
1688994411.850,29.785,2.441,5.371,-21.973,48.828
1688994411.854,38.086,5.859,5.859,-19.531,36.621
1688994411.858,39.551,8.301,7.324,-18.066,14.648
1688994411.862,30.762,1.953,0.977,-31.738,53.223
1688994411.865,29.785,-2.441,-9.277,-43.457,63.477
1688994411.869,36.133,12.695,-13.184,-32.715,5.371
1688994411.873,40.527,25.879,-11.230,-22.949,49.805
1688994411.877,37.598,23.438,-8.789,-22.461,49.805
1688994411.881,31.250,25.879,-10.742,-25.391,29.297
1688994411.885,20.996,43.457,-19.043,-37.109,59.082
1688994411.889,20.996,54.199,-19.043,-34.180,15.625
1688994411.893,28.320,48.340,-8.789,-16.602,-6.348
1688994411.897,26.367,55.176,-10.742,-17.090,29.297
1688994411.901,28.809,69.336,-13.184,-27.832,39.551
1688994411.905,30.762,79.590,-7.324,-25.879,50.293
1688994411.908,30.273,111.816,-11.230,-28.320,63.477
1688994411.912,34.180,151.367,-15.625,-24.902,60.059
1688994411.916,30.273,182.129,-10.254,-22.461,68.848
1688994411.920,29.297,201.660,1.953,-22.461,43.945
1688994411.924,26.855,208.496,9.766,-23.926,-45.898
1688994411.928,22.461,185.059,11.719,-34.668,-21.973
1688994411.932,26.855,159.668,13.672,-33.691,60.059
1688994411.936,34.668,187.012,13.184,-24.902,68.359
1688994411.940,31.738,214.355,21.484,-27.344,45.898
1688994411.944,22.949,211.426,23.438,-22.461,9.277
1688994411.948,10.742,202.148,14.160,-19.043,16.602
1688994411.951,13.184,190.918,5.859,-18.066,42.480
1688994411.955,19.531,180.176,10.742,-17.578,13.672
1688994411.959,9.766,170.898,15.625,-10.254,-36.621
1688994411.963,10.254,160.645,11.719,-13.672,-40.039
1688994411.967,11.719,153.809,10.742,-21.484,-25.391
1688994411.971,12.207,153.320,7.812,-8.789,9.766
1688994411.975,18.555,157.227,4.395,-6.348,10.742
1688994411.979,20.508,157.227,-1.465,-5.371,24.902
1688994411.983,23.438,147.461,-7.812,-1.465,46.875
1688994411.987,24.902,146.973,-9.766,0.000,41.504
1688994411.990,21.973,158.691,-10.254,0.000,37.598
1688994411.994,14.648,155.762,-7.812,-8.789,27.832
1688994411.998,12.207,145.508,-3.418,-8.301,-14.648
1688994412.002,9.277,138.184,0.977,1.953,-8.301
1688994412.006,6.836,129.883,3.418,0.000,19.043
1688994412.010,4.395,120.605,0.488,8.301,41.992
1688994412.014,7.324,110.840,0.488,15.625,10.254
1688994412.018,12.207,107.910,2.441,16.602,-47.363
1688994412.022,15.625,106.934,-0.977,18.066,18.066
1688994412.026,18.555,97.656,-5.859,9.766,30.273
1688994412.030,21.973,87.891,-5.859,17.090,10.254
1688994412.033,19.043,90.820,-7.812,21.484,67.871
1688994412.037,18.066,88.379,-10.254,9.766,36.133
1688994412.041,21.484,77.148,-5.371,17.090,0.000
1688994412.045,17.090,72.266,-5.859,19.531,12.207
1688994412.049,17.578,67.871,-7.324,19.043,31.250
1688994412.053,29.785,71.289,-4.883,24.902,90.820
1688994412.057,29.297,71.289,-2.441,21.973,78.613
1688994412.061,52.734,72.754,-14.648,35.645,50.293
1688994412.065,95.215,83.984,-20.020,62.500,32.715
1688994412.069,76.172,69.824,3.418,57.617,29.785
1688994412.073,27.832,54.199,17.578,35.156,70.312
1688994412.076,20.508,55.664,12.207,27.832,82.031
1688994412.080,31.250,57.129,12.207,33.691,40.527
1688994412.084,23.438,52.246,17.090,23.926,7.324
1688994412.088,22.461,38.086,20.020,6.348,-28.809
1688994412.092,4.883,34.668,20.020,-6.836,17.090
1688994412.096,-2.930,39.062,11.230,-1.465,28.320
1688994412.100,1.953,42.969,10.254,5.859,2.930
1688994412.104,-19.043,34.180,19.043,-9.277,69.336
1688994412.108,-12.695,29.297,23.926,-3.906,54.199
1688994412.112,-17.090,43.945,20.508,4.395,84.473
1688994412.115,-26.855,37.109,15.137,1.953,76.172
1688994412.119,-17.090,17.090,14.160,-4.883,33.203
1688994412.123,-15.137,19.531,10.742,-16.602,70.312
1688994412.127,-15.137,27.832,-0.488,-11.719,81.543
1688994412.131,-3.906,25.879,2.930,3.418,80.078
1688994412.135,11.719,26.855,10.254,15.137,63.965
1688994412.139,11.719,24.902,8.301,26.855,61.035
1688994412.143,20.020,18.555,6.348,21.484,3.906
1688994412.147,19.043,16.113,9.277,9.766,4.395
1688994412.151,7.324,17.090,12.695,9.766,33.203
1688994412.155,18.066,20.996,13.672,23.926,56.152
1688994412.158,24.902,11.719,18.066,31.250,70.801
1688994412.162,21.973,0.977,13.672,22.461,29.297
1688994412.166,23.438,13.184,11.719,20.996,26.855
1688994412.170,30.273,14.648,20.508,16.602,25.879
1688994412.174,34.668,15.625,18.066,24.414,23.438
1688994412.178,36.621,19.043,16.113,33.203,-12.695
1688994412.182,24.414,12.207,16.113,22.461,-55.176
1688994412.186,26.367,13.672,10.742,26.367,24.902
1688994412.190,31.738,15.625,16.113,29.297,70.312
1688994412.194,31.738,15.625,20.996,29.785,48.340
1688994412.198,45.898,21.484,20.508,29.785,11.230
1688994412.201,45.410,28.809,19.531,25.391,27.344
1688994412.205,40.039,20.020,20.508,25.391,-7.324
1688994412.209,42.480,20.508,22.949,36.133,-50.781
1688994412.213,31.250,17.578,20.508,49.805,-32.715
1688994412.217,32.715,6.348,21.484,39.062,-33.691
1688994412.221,33.203,-4.395,21.973,13.184,6.348
1688994412.225,20.020,10.742,18.555,10.742,-6.836
1688994412.229,18.555,44.922,18.555,14.648,17.578
1688994412.233,27.832,45.898,17.578,12.695,108.398
1688994412.237,19.531,41.016,16.602,20.508,113.770
1688994412.240,5.859,37.109,21.973,17.090,28.320
1688994412.244,11.719,36.133,30.273,13.672,36.621
1688994412.248,11.230,36.621,33.203,21.484,83.496
1688994412.252,22.461,30.762,34.668,21.484,65.918
1688994412.256,14.648,23.926,37.109,16.113,42.969
1688994412.260,2.441,25.391,30.762,20.508,4.883
1688994412.264,6.836,26.855,32.227,19.531,19.043
1688994412.268,13.672,29.297,36.133,13.184,14.160
1688994412.272,23.926,27.832,32.715,10.742,8.789
1688994412.276,20.508,20.020,34.668,15.137,48.340
1688994412.280,12.207,22.461,33.203,18.555,80.078
1688994412.283,21.484,21.484,32.227,14.160,0.000
1688994412.287,22.461,16.113,33.203,6.348,-33.691
1688994412.291,13.184,20.996,29.785,11.719,0.977
1688994412.295,11.719,15.625,21.484,17.578,-22.461
1688994412.299,14.648,5.371,16.113,7.812,23.438
1688994412.303,18.066,9.766,20.508,-0.977,12.207
1688994412.307,15.625,8.789,25.879,6.348,4.395
1688994412.311,18.066,6.348,25.879,12.695,38.086
1688994412.315,19.531,6.836,28.320,14.160,31.250
1688994412.319,13.672,3.418,32.715,19.043,-3.418
1688994412.322,17.578,0.977,25.879,17.578,-0.488
1688994412.326,32.227,1.953,39.551,24.902,13.184
1688994412.330,38.574,11.719,37.109,30.273,16.602
1688994412.334,27.344,6.836,23.926,27.344,35.645
1688994412.338,31.250,0.977,45.898,26.367,30.273
1688994412.342,38.574,4.395,35.156,22.461,18.066
1688994412.346,20.996,-0.977,32.715,8.789,26.855
1688994412.350,19.531,7.324,54.688,13.672,51.270
1688994412.354,13.184,5.371,45.898,17.578,1.465
1688994412.358,0.000,4.395,39.551,7.324,-36.621
1688994412.362,-7.324,0.000,42.480,-9.766,23.438
1688994412.365,-14.648,0.000,42.969,-29.785,23.926
1688994412.369,-20.020,19.531,51.758,-35.156,16.113
1688994412.373,-28.809,23.926,55.176,-32.227,16.113
1688994412.377,-36.621,31.738,58.105,-36.621,26.367
1688994412.381,-51.758,34.180,73.242,-58.594,81.543
1688994412.385,-64.453,31.738,69.336,-85.449,56.641
1688994412.389,-79.102,36.621,69.336,-97.168,32.227
1688994412.393,-93.262,47.363,92.773,-94.238,16.602
1688994412.397,-110.352,60.547,101.562,-104.004,4.883
1688994412.401,-116.699,70.801,106.934,-113.770,32.715
1688994412.405,-101.074,78.613,107.910,-98.633,5.371
1688994412.408,-95.215,84.473,103.027,-105.469,-8.301
1688994412.412,-95.703,93.750,99.609,-105.957,12.207
1688994412.416,-95.703,89.844,89.844,-96.191,39.062
1688994412.420,-91.797,81.543,83.008,-109.375,51.758
1688994412.424,-94.238,77.148,83.008,-109.375,64.941
1688994412.428,-92.285,71.777,78.125,-94.727,57.617
1688994412.432,-81.543,62.988,71.289,-68.359,50.781
1688994412.436,-71.777,43.457,64.453,-46.875,76.660
1688994412.440,-47.852,40.039,51.270,-33.203,80.566
1688994412.444,-28.809,45.898,42.969,-18.555,67.871
1688994412.447,-16.113,32.227,38.086,-14.160,17.578
1688994412.451,1.465,19.043,26.855,-2.930,21.973
1688994412.455,17.090,12.207,15.625,14.160,23.926
1688994412.459,28.320,8.301,18.066,25.391,17.578
1688994412.463,33.203,5.859,18.066,27.344,24.414
1688994412.467,30.762,1.953,8.301,29.785,12.695
1688994412.471,35.156,-1.953,9.766,40.039,-5.371
1688994412.475,44.922,-5.859,9.277,45.410,37.109
1688994412.479,53.711,-7.812,4.395,61.035,49.805
1688994412.483,52.734,-6.348,5.371,62.500,27.344
1688994412.487,57.617,-1.465,-0.977,50.781,78.613
1688994412.490,69.336,1.953,0.977,66.895,85.449
1688994412.494,92.285,0.977,7.324,77.148,87.891
1688994412.498,100.098,-2.930,6.348,68.359,80.566
1688994412.502,92.285,-3.906,3.906,73.730,93.262
1688994412.506,81.055,-11.719,2.930,88.379,49.805
1688994412.510,79.102,-20.996,3.906,96.680,-27.832
1688994412.514,86.426,-18.555,-1.465,82.520,-26.367
1688994412.518,84.961,-15.137,-4.395,68.848,-8.789
1688994412.522,80.566,-19.043,10.254,83.496,10.742
1688994412.526,79.102,-23.926,18.555,78.125,12.695
1688994412.530,74.219,-22.461,11.230,63.477,16.602
1688994412.533,68.359,-21.484,4.883,75.195,27.832
1688994412.537,70.801,-21.484,9.277,78.613,35.645
1688994412.541,69.824,-20.996,6.348,69.336,39.062
1688994412.545,66.895,-20.508,6.836,62.012,55.664
1688994412.549,65.918,-12.207,10.742,64.453,109.375
1688994412.553,62.012,-9.766,1.953,71.777,65.430
1688994412.557,62.012,-16.113,-4.395,67.871,-3.418
1688994412.561,65.918,-15.137,0.488,61.523,41.992
1688994412.565,57.129,-10.254,3.906,57.617,64.453
1688994412.569,54.688,-9.766,3.418,55.176,68.848
1688994412.572,63.477,-9.277,3.906,61.035,96.680
1688994412.576,66.406,-5.371,3.418,65.918,63.477
1688994412.580,57.617,-1.953,0.488,63.965,-14.648
1688994412.584,60.547,-3.906,-2.441,57.617,-12.695
1688994412.588,64.941,-11.719,0.488,52.734,41.016
1688994412.592,61.035,-5.859,8.789,55.664,39.551
1688994412.596,68.848,-4.883,14.648,62.012,4.395
1688994412.600,67.871,-3.906,12.207,60.547,-3.418
1688994412.604,62.988,7.324,13.672,55.664,41.992
1688994412.608,57.129,6.836,11.719,45.410,105.957
1688994412.612,48.828,5.371,5.859,41.992,145.020
1688994412.615,44.922,-0.488,14.160,48.340,107.910
1688994412.619,41.992,-5.859,13.672,39.062,81.543
1688994412.623,45.898,-6.836,7.812,31.250,36.621
1688994412.627,44.922,-9.277,12.695,38.086,-10.742
1688994412.631,44.434,-8.789,14.160,47.363,2.441
1688994412.635,46.387,-10.742,12.695,44.922,19.531
1688994412.639,50.781,-12.207,18.555,47.852,20.996
1688994412.643,50.781,-12.695,23.438,40.527,-11.719
1688994412.647,39.551,-10.742,22.949,31.738,3.906
1688994412.651,40.039,-5.371,23.438,35.156,48.828
1688994412.654,45.410,-7.812,27.832,30.762,29.785
1688994412.658,41.992,-10.254,28.320,38.086,3.418
1688994412.662,47.852,-8.789,26.855,40.039,33.203
1688994412.666,61.035,-7.812,29.785,36.621,61.523
1688994412.670,57.617,-10.742,28.809,45.898,31.250
1688994412.674,55.664,-9.766,26.855,62.500,7.324
1688994412.678,62.988,-4.883,28.320,55.664,49.805
1688994412.682,60.059,-8.301,28.320,43.945,23.926
1688994412.686,55.664,-2.441,26.367,41.504,46.387
1688994412.690,54.199,5.371,25.391,44.922,42.969
1688994412.694,61.035,4.395,27.344,47.363,-29.785
1688994412.697,67.383,5.371,29.297,46.875,-18.555
1688994412.701,63.965,4.395,30.762,46.387,-15.137
1688994412.705,55.664,-0.977,32.227,47.852,-21.484
1688994412.709,50.781,-2.441,30.762,47.363,35.645
1688994412.713,48.828,1.465,29.785,48.828,28.320
1688994412.717,53.223,0.488,27.344,53.223,26.855
1688994412.721,56.641,-7.812,25.391,48.340,69.824
1688994412.725,50.293,1.953,28.809,37.598,0.977
1688994412.729,47.852,6.348,25.391,28.809,-12.695
1688994412.733,47.852,4.883,18.066,37.109,41.016
1688994412.737,52.734,11.230,13.184,43.945,24.414
1688994412.740,43.457,9.766,9.766,38.086,0.977
1688994412.744,39.551,9.277,11.230,30.273,28.320
1688994412.748,45.410,5.859,16.113,29.297,11.719
1688994412.752,47.852,-0.488,21.484,41.504,18.555
1688994412.756,57.129,-2.441,20.020,50.293,22.461
1688994412.760,55.176,-3.906,12.207,40.527,29.785
1688994412.764,44.922,-2.441,13.672,44.922,46.875
1688994412.768,47.363,-6.836,26.367,43.945,5.859
1688994412.772,52.734,-11.230,32.227,37.109,28.320
1688994412.776,47.852,-8.301,33.691,47.852,-2.441
1688994412.779,46.387,-6.836,34.180,44.922,-49.316
1688994412.783,41.992,-12.695,37.109,38.086,41.016
1688994412.787,30.762,-9.766,39.551,41.992,73.242
1688994412.791,32.227,-2.441,30.273,37.109,100.098
1688994412.795,36.621,-4.883,26.855,35.645,56.152
1688994412.799,34.180,-7.324,30.762,37.598,-17.578
1688994412.803,32.227,-2.930,29.785,25.391,33.203
1688994412.807,35.156,-2.930,31.250,21.973,2.441
1688994412.811,24.414,-6.348,30.762,30.762,-0.488
1688994412.815,24.902,-6.836,26.367,33.203,17.578
1688994412.819,30.273,-9.766,25.879,24.902,-24.902
1688994412.822,24.414,-8.301,29.297,25.879,21.484
1688994412.826,32.227,-15.137,27.832,42.480,27.832
1688994412.830,35.645,-29.785,20.996,40.039,19.043
1688994412.834,35.645,-26.855,20.508,30.273,44.922
1688994412.838,42.480,-21.484,22.461,32.227,-16.602
1688994412.842,35.156,-25.879,25.391,28.320,-31.250
1688994412.846,31.738,-24.902,28.320,25.391,13.672
1688994412.850,26.855,-4.883,32.227,24.902,51.270
1688994412.854,23.926,10.742,36.133,30.273,12.207
1688994412.858,25.391,10.742,35.156,24.902,0.488
1688994412.862,21.973,7.324,38.574,14.648,-14.160
1688994412.865,17.090,0.488,36.133,11.719,-14.160
1688994412.869,16.113,-3.906,30.273,7.812,-6.348
1688994412.873,14.648,-1.953,32.227,18.066,14.648
1688994412.877,11.719,-1.465,28.809,18.066,16.602
1688994412.881,11.230,-3.906,23.926,5.371,-6.348
1688994412.885,10.254,-1.953,26.367,4.883,25.391
1688994412.889,11.230,1.465,27.832,14.160,62.988
1688994412.893,12.207,0.977,25.391,18.555,29.297
1688994412.897,20.020,4.395,28.809,14.648,16.602
1688994412.901,21.484,4.395,34.180,7.324,-11.719
1688994412.904,18.555,-0.977,34.668,3.906,-27.344
1688994412.908,24.414,8.301,29.785,11.719,57.617
1688994412.912,21.484,18.555,26.367,10.254,69.824
1688994412.916,10.742,14.648,32.227,4.883,82.031
1688994412.920,9.277,11.230,38.574,1.465,43.457
1688994412.924,13.672,8.301,34.180,3.906,49.316
1688994412.928,20.020,8.789,41.992,17.578,121.582
1688994412.932,24.902,15.625,40.527,21.973,70.801
1688994412.936,26.855,9.766,36.621,17.578,22.461
1688994412.940,28.809,11.719,37.109,15.137,17.090
1688994412.944,27.832,10.742,29.785,9.277,1.465
1688994412.947,20.508,3.906,36.133,7.812,10.254
1688994412.951,12.695,16.602,43.945,4.883,16.602
1688994412.955,17.578,24.902,47.363,3.906,38.574
1688994412.959,13.672,14.648,45.410,-0.977,23.438
1688994412.963,1.465,6.348,51.758,-8.789,1.465
1688994412.967,-12.207,17.578,50.781,-20.996,48.340
1688994412.971,-24.902,24.414,62.500,-26.855,66.895
1688994412.975,-46.387,24.414,79.590,-39.551,74.707
1688994412.979,-66.895,32.227,89.844,-72.266,36.621
1688994412.983,-76.172,47.852,90.332,-88.867,6.836
1688994412.986,-80.078,60.547,87.891,-95.215,-4.395
1688994412.990,-85.449,61.523,93.750,-105.469,26.855
1688994412.994,-101.562,63.477,97.656,-113.770,31.250
1688994412.998,-101.562,73.730,101.562,-111.328,-25.391
1688994413.002,-96.191,73.730,105.957,-125.000,-13.184
1688994413.006,-97.168,62.500,114.258,-127.930,37.109
1688994413.010,-90.820,61.523,116.699,-108.887,88.867
1688994413.014,-93.262,65.430,104.004,-106.445,62.988
1688994413.018,-84.473,64.941,94.727,-109.375,39.551
1688994413.022,-76.660,59.082,89.844,-88.379,42.969
1688994413.026,-77.637,59.570,88.867,-93.262,32.227
1688994413.029,-68.848,60.059,85.449,-94.727,22.461
1688994413.033,-71.289,46.875,72.754,-75.684,-11.230
1688994413.037,-69.336,34.180,63.965,-82.031,6.836
1688994413.041,-46.875,33.203,51.758,-62.988,8.301
1688994413.045,-19.531,27.832,49.805,-38.574,-1.953
1688994413.049,-20.020,18.555,41.992,-39.551,26.855
1688994413.053,-9.766,14.648,14.648,-20.508,94.238
1688994413.057,11.719,4.883,11.230,4.883,91.797
1688994413.061,14.648,-5.859,16.602,18.066,18.066
1688994413.065,27.344,-7.324,10.254,32.227,24.902
1688994413.069,37.109,-9.277,2.441,34.180,20.020
1688994413.072,46.875,-13.672,-2.930,46.875,23.438
1688994413.076,62.988,-19.043,-3.906,62.988,77.637
1688994413.080,69.336,-26.855,-5.371,62.988,50.781
1688994413.084,67.383,-38.574,-3.906,77.148,44.922
1688994413.088,72.266,-40.527,-0.977,86.914,59.570
1688994413.092,83.008,-31.250,0.000,80.566,72.754
1688994413.096,97.656,-30.762,-1.953,84.473,56.152
1688994413.100,89.844,-33.203,-3.906,82.031,-19.043
1688994413.104,84.473,-32.227,-2.930,67.383,-35.156
1688994413.108,95.215,-32.227,-2.930,67.383,51.270
1688994413.111,84.473,-33.691,-3.906,76.660,71.289
1688994413.115,81.543,-34.668,-3.418,82.520,17.578
1688994413.119,91.797,-34.668,2.930,75.195,40.527
1688994413.123,88.379,-36.133,1.465,69.824,22.461
1688994413.127,94.238,-39.551,3.418,72.266,25.391
1688994413.131,93.750,-38.086,5.859,72.266,45.410
1688994413.135,87.402,-34.668,3.418,82.520,52.246
1688994413.139,88.379,-39.551,3.906,80.566,23.438
1688994413.143,79.102,-41.992,2.930,63.477,0.977
1688994413.147,74.219,-36.133,4.883,60.059,29.785
1688994413.151,74.707,-39.062,11.230,69.336,51.758
1688994413.154,68.848,-41.504,9.277,62.500,10.742
1688994413.158,58.105,-38.086,7.324,50.293,-35.645
1688994413.162,52.246,-35.156,6.836,56.641,1.953
1688994413.166,55.176,-31.738,3.418,53.223,16.602
1688994413.170,56.152,-24.902,2.441,62.012,68.359
1688994413.174,55.664,-18.066,7.324,67.871,118.652
1688994413.178,55.176,-17.090,12.207,60.547,83.496
1688994413.182,57.129,-15.625,9.766,56.152,25.879
1688994413.186,57.617,-15.625,9.766,49.805,24.414
1688994413.190,58.105,-16.602,15.137,58.594,22.461
1688994413.194,66.895,-11.230,15.625,62.988,27.344
1688994413.197,71.777,-8.789,16.602,63.477,38.574
1688994413.201,67.383,-12.207,20.508,62.012,-23.926
1688994413.205,64.941,-10.254,19.043,63.477,33.691
1688994413.209,68.848,-9.766,17.090,67.383,93.750
1688994413.213,70.801,-16.113,14.648,65.918,45.898
1688994413.217,64.941,-23.438,16.602,64.453,51.270
1688994413.221,61.035,-20.020,19.531,63.477,54.688
1688994413.225,60.059,-9.277,16.602,59.570,24.414
1688994413.229,52.246,-13.184,17.578,53.223,30.273
1688994413.233,50.781,-11.230,17.578,51.758,-16.602
1688994413.236,53.711,-5.859,14.648,49.805,-9.766
1688994413.240,47.852,-12.695,19.531,41.016,61.523
1688994413.244,50.293,-17.090,25.879,43.945,40.039
1688994413.248,53.223,-16.602,22.949,53.711,-11.230
1688994413.252,42.969,-21.484,18.555,43.457,36.133
1688994413.256,44.922,-25.391,22.949,44.434,91.797
1688994413.260,45.410,-19.531,23.438,56.641,81.543
1688994413.264,41.504,-18.066,21.973,49.805,63.477
1688994413.268,46.875,-21.973,24.902,47.852,48.828
1688994413.272,48.828,-23.438,19.043,55.664,12.207
1688994413.276,48.828,-21.973,17.090,52.246,18.066
1688994413.279,50.293,-20.020,21.973,41.504,42.480
1688994413.283,53.711,-22.949,21.484,40.527,11.230
1688994413.287,60.059,-16.602,18.066,51.758,-4.883
1688994413.291,60.059,-11.230,21.973,47.852,19.043
1688994413.295,57.129,-10.254,21.484,42.969,20.508
1688994413.299,58.594,-9.766,13.184,42.480,31.250
1688994413.303,63.477,-17.090,10.254,41.016,45.898
1688994413.307,59.570,-12.695,6.348,47.852,58.105
1688994413.311,55.176,-6.348,3.906,47.363,-5.859
1688994413.315,60.547,-7.812,6.348,44.922,-14.160
1688994413.319,54.688,-6.348,11.719,37.598,64.453
1688994413.322,47.852,-5.371,15.625,31.250,24.414
1688994413.326,48.828,-4.883,19.531,37.109,-12.207
1688994413.330,51.270,-8.301,24.902,33.203,10.742
1688994413.334,55.664,-10.254,26.367,30.273,14.160
1688994413.338,44.922,-14.160,30.273,38.574,-3.418
1688994413.342,40.039,-19.043,29.297,35.645,18.066
1688994413.346,39.062,-19.531,26.855,35.645,18.555
1688994413.350,35.645,-19.043,25.391,39.551,66.406
1688994413.354,38.086,-22.461,20.996,34.668,20.020
1688994413.358,41.992,-20.508,20.508,29.297,-18.555
1688994413.361,39.062,-21.973,22.461,27.344,-5.371
1688994413.365,36.621,-22.461,24.902,26.855,-17.090
1688994413.369,43.457,-11.719,28.320,40.039,12.695
1688994413.373,45.898,-6.348,30.273,44.922,37.109
1688994413.377,50.781,-7.812,31.738,35.156,47.852
1688994413.381,56.152,-11.719,37.109,42.969,45.410
1688994413.385,52.246,-11.230,39.062,41.992,54.199
1688994413.389,49.805,-8.301,37.109,40.527,28.809
1688994413.393,48.828,-5.371,29.785,48.340,43.457
1688994413.397,48.828,-3.906,19.043,43.457,52.734
1688994413.401,42.480,-8.789,20.020,34.668,-16.602
1688994413.404,34.180,-12.207,24.414,32.715,-39.551
1688994413.408,37.109,-9.766,25.879,32.715,-21.484
1688994413.412,34.668,-6.836,23.926,32.227,42.480
1688994413.416,28.320,-1.953,23.438,30.762,72.754
1688994413.420,23.926,4.883,30.273,29.297,36.133
1688994413.424,26.855,4.395,37.109,21.484,-7.324
1688994413.428,27.832,1.465,33.203,20.508,5.371
1688994413.432,22.949,5.371,30.762,23.438,51.270
1688994413.436,24.902,7.324,39.551,16.113,34.180
1688994413.440,31.250,4.395,42.969,7.812,39.062
1688994413.443,25.391,4.395,38.574,0.977,84.473
1688994413.447,18.555,7.324,35.156,2.930,84.473
1688994413.451,27.832,4.883,29.297,5.859,3.906
1688994413.455,40.039,7.324,20.508,21.973,-12.695
1688994413.459,39.062,12.695,19.531,36.133,39.062
1688994413.463,13.672,3.418,37.109,6.348,63.965
1688994413.467,3.418,-3.418,43.457,-3.418,77.148
1688994413.471,28.320,-1.953,41.992,27.832,11.230
1688994413.475,32.227,4.395,52.734,38.574,-21.484
1688994413.479,22.461,8.301,55.664,21.973,56.641
1688994413.483,26.855,4.883,52.246,12.695,20.020
1688994413.486,27.832,2.441,56.152,19.531,47.852
1688994413.490,35.645,3.418,55.664,23.926,73.242
1688994413.494,38.086,5.371,49.805,29.785,22.949
1688994413.498,14.160,5.371,41.992,28.809,-2.930
1688994413.502,3.418,3.906,37.598,20.996,64.941
1688994413.506,14.648,-5.371,44.434,21.484,91.309
1688994413.510,22.461,-3.418,50.293,27.344,43.457
1688994413.514,15.625,1.465,50.293,24.414,7.812
1688994413.518,8.789,0.000,52.734,20.020,0.977
1688994413.522,11.230,7.324,55.176,16.602,59.570
1688994413.526,20.020,11.230,51.758,10.742,56.641
1688994413.529,23.438,16.602,49.805,16.113,56.152
1688994413.533,27.344,33.203,71.777,26.367,67.871
1688994413.537,26.367,31.250,75.684,18.555,49.805
1688994413.541,30.273,20.020,51.758,18.555,52.734
1688994413.545,27.344,32.715,63.965,23.926,81.543
1688994413.549,19.043,30.762,57.129,22.461,43.457
1688994413.553,12.207,24.902,41.016,15.625,49.805
1688994413.557,0.488,26.855,55.176,0.488,49.316
1688994413.561,-5.371,29.785,70.312,-7.324,14.160
1688994413.565,-12.695,35.645,76.172,-18.555,46.875
1688994413.568,-20.996,31.250,80.078,-24.414,15.137
1688994413.572,-40.039,29.297,78.613,-31.738,20.508
1688994413.576,-62.500,20.996,80.078,-55.664,49.316
1688994413.580,-68.359,28.320,100.586,-60.059,5.371
1688994413.584,-71.777,44.922,120.117,-64.453,6.836
1688994413.588,-86.426,55.664,124.023,-85.938,62.500
1688994413.592,-100.098,62.988,117.188,-98.145,39.062
1688994413.596,-100.098,69.824,122.070,-101.562,-20.996
1688994413.600,-99.121,71.777,135.254,-95.215,-19.043
1688994413.604,-92.285,71.777,124.023,-94.238,-6.348
1688994413.608,-89.355,66.895,106.445,-80.566,0.488
1688994413.611,-88.867,59.082,104.004,-75.684,-8.301
1688994413.615,-79.590,51.270,92.285,-90.332,-23.926
1688994413.619,-62.012,38.574,80.078,-69.336,-19.043
1688994413.623,-44.922,27.832,65.430,-53.223,15.137
1688994413.627,-32.715,27.344,55.664,-42.480,39.551
1688994413.631,-14.648,16.602,59.570,-13.184,-11.719
1688994413.635,2.930,-3.906,46.875,12.207,-23.438
1688994413.639,6.348,-6.836,31.250,15.137,77.637
1688994413.643,3.418,-11.230,22.949,12.695,88.867
1688994413.647,17.090,-23.438,17.090,28.320,61.035
1688994413.651,23.438,-26.367,16.113,38.574,23.438
1688994413.654,31.738,-18.066,12.695,47.852,37.109
1688994413.658,40.039,-21.973,6.348,54.688,65.430
1688994413.662,40.039,-29.297,2.930,39.551,0.000
1688994413.666,49.316,-26.855,3.906,40.527,-16.113
1688994413.670,56.152,-27.832,9.766,57.129,28.809
1688994413.674,58.105,-33.691,9.277,66.406,-2.930
1688994413.678,68.848,-30.762,10.742,65.430,-5.371
1688994413.682,67.871,-24.414,17.578,62.988,26.367
1688994413.686,58.594,-25.391,16.602,66.406,0.977
1688994413.690,66.895,-24.414,16.602,69.336,20.508
1688994413.693,72.754,-24.414,22.461,75.684,55.176
1688994413.697,78.125,-20.508,15.625,82.520,90.820
1688994413.701,82.031,-21.973,15.137,66.895,106.934
1688994413.705,77.637,-29.785,21.973,62.988,59.082
1688994413.709,81.543,-25.391,17.090,73.242,49.805
1688994413.713,81.055,-26.855,17.578,74.219,94.238
1688994413.717,81.543,-30.762,27.344,74.219,46.875
1688994413.721,82.031,-27.344,27.832,62.012,26.855
1688994413.725,74.219,-29.297,21.973,58.105,71.777
1688994413.729,74.219,-32.227,16.602,62.500,32.227
1688994413.733,73.730,-29.785,21.484,63.965,-20.508
1688994413.736,73.730,-27.832,28.809,61.035,-1.953
1688994413.740,78.125,-26.367,23.926,55.664,40.039
1688994413.744,80.078,-19.531,21.973,55.176,102.539
1688994413.748,74.707,-17.090,26.367,54.688,53.711
1688994413.752,56.152,-17.090,27.832,47.363,15.625
1688994413.756,56.152,-13.184,26.855,40.527,38.086
1688994413.760,58.105,-18.555,24.414,33.691,32.227
1688994413.764,46.387,-26.855,23.438,39.062,7.324
1688994413.768,46.387,-28.809,23.926,48.340,-14.648
1688994413.772,43.457,-28.320,20.996,45.410,14.160
1688994413.775,40.527,-28.809,20.508,45.410,77.637
1688994413.779,45.410,-23.926,24.902,40.039,76.660
1688994413.783,49.805,-19.531,22.949,36.621,56.152
1688994413.787,51.270,-13.672,20.508,40.527,52.246
1688994413.791,49.316,1.465,20.508,45.898,30.762
1688994413.795,53.223,0.488,18.555,41.992,10.254
1688994413.799,44.922,-1.953,16.602,35.156,31.738
1688994413.803,41.992,-11.719,20.020,35.156,20.020
1688994413.807,47.363,-25.879,27.344,46.387,5.859
1688994413.811,42.969,-4.395,27.832,47.363,60.547
1688994413.815,41.504,13.184,26.367,39.062,59.082
1688994413.818,42.969,12.207,31.738,34.668,16.113
1688994413.822,41.992,11.719,34.180,32.715,49.316
1688994413.826,39.062,10.742,33.691,31.738,54.688
1688994413.830,43.457,1.953,30.762,33.203,89.355
1688994413.834,45.410,-6.348,29.785,33.203,84.473
1688994413.838,49.805,-8.789,28.320,25.391,71.777
1688994413.842,52.734,-11.719,26.367,23.926,105.469
1688994413.846,49.805,-8.301,29.297,32.227,44.434
1688994413.850,46.387,-6.348,30.273,41.016,-18.066
1688994413.854,40.527,-7.324,33.203,47.363,6.836
1688994413.858,35.645,-18.066,30.273,37.109,20.996
1688994413.861,43.945,-22.461,27.344,33.203,-18.066
1688994413.865,46.387,-12.695,26.855,39.062,22.949
1688994413.869,41.992,-17.090,31.738,40.527,54.688
1688994413.873,43.945,-17.090,38.574,49.316,48.340
1688994413.877,45.898,-5.859,35.645,45.410,6.836
1688994413.881,41.504,0.000,28.809,34.180,40.039
1688994413.885,39.062,-1.465,25.391,37.109,15.625
1688994413.889,35.645,-0.977,26.367,39.551,-22.461
1688994413.893,30.273,6.836,26.367,41.992,-5.371
1688994413.897,33.691,4.395,26.367,33.691,-20.020
1688994413.900,32.227,-6.348,22.461,22.461,-14.160
1688994413.904,30.762,-8.789,24.902,27.832,-35.156
1688994413.908,34.668,-6.836,28.809,34.668,8.301
1688994413.912,32.227,-9.277,27.832,41.504,43.945
1688994413.916,37.598,-7.324,26.855,40.527,38.574
1688994413.920,41.992,-6.348,24.902,32.227,16.113
1688994413.924,35.645,-9.766,25.879,30.762,2.441
1688994413.928,39.062,-10.742,25.879,31.250,49.805
1688994413.932,43.457,-12.207,28.320,33.691,83.984
1688994413.936,40.039,-9.766,27.344,30.762,64.453
1688994413.940,37.598,-6.348,24.902,19.043,17.578
1688994413.943,41.504,-6.836,27.344,19.043,26.855
1688994413.947,37.109,-10.254,28.320,23.438,52.246
1688994413.951,36.133,-9.277,27.344,32.715,51.270
1688994413.955,37.598,-7.324,26.855,32.715,54.688
1688994413.959,37.109,-10.742,26.367,30.762,67.871
1688994413.963,38.086,-8.789,26.855,30.762,70.801
1688994413.967,34.180,-3.906,25.879,20.996,59.082
1688994413.971,31.250,-8.301,22.949,23.438,35.645
1688994413.975,36.621,-12.695,25.391,26.855,59.082
1688994413.979,41.504,-12.207,26.367,26.855,100.586
1688994413.983,31.250,-10.254,26.367,28.320,78.125
1688994413.986,21.973,-8.301,26.367,23.438,45.898
1688994413.990,32.715,-5.859,27.832,26.367,100.098
1688994413.994,27.344,-6.348,31.250,22.949,58.105
1688994413.998,22.461,-9.277,28.320,15.137,-6.836
1688994414.002,29.785,-10.742,25.879,19.531,17.578
1688994414.006,22.949,-12.207,26.855,22.949,29.297
1688994414.010,26.367,-10.254,23.926,31.250,30.762
1688994414.014,34.180,-12.695,22.949,30.762,12.207
1688994414.018,33.691,-18.555,24.414,18.066,1.465
1688994414.022,24.414,-14.648,23.438,19.531,36.133
1688994414.025,18.066,-16.602,24.902,20.508,40.039
1688994414.029,26.367,-18.066,21.973,19.531,-23.438
1688994414.033,23.438,-15.137,21.973,21.973,-38.574
1688994414.037,19.043,-20.020,22.461,16.113,-52.734
1688994414.041,35.156,-32.715,25.879,37.598,5.371
1688994414.045,49.316,-36.133,35.645,48.828,62.012
1688994414.049,29.297,-23.438,30.273,17.090,10.254
1688994414.053,16.113,-17.578,19.531,-1.953,-34.180
1688994414.057,2.441,-18.066,17.090,-14.648,13.184
1688994414.061,-12.695,-18.066,16.602,-23.438,86.914
1688994414.065,-1.465,-20.020,12.695,-13.184,46.875
1688994414.068,10.742,-16.113,10.742,-8.789,22.461
1688994414.072,13.184,-12.207,14.160,-2.930,15.137
1688994414.076,18.066,-9.277,17.090,0.488,-42.480
1688994414.080,25.391,-3.418,20.020,2.930,-38.086
1688994414.084,26.855,-9.766,21.973,8.301,54.688
1688994414.088,32.227,-6.348,20.996,9.766,13.672
1688994414.092,25.879,1.953,14.648,14.648,-31.250
1688994414.096,20.996,-4.395,13.184,9.766,27.344
1688994414.100,24.902,0.977,23.438,7.324,93.262
1688994414.104,28.320,-0.977,21.484,11.230,62.988
1688994414.107,32.227,-15.625,24.902,15.625,40.039
1688994414.111,39.062,-2.441,37.109,21.973,53.223
1688994414.115,34.668,11.230,39.551,17.090,-9.277
1688994414.119,32.227,14.648,40.527,7.324,-21.973
1688994414.123,37.109,20.996,39.551,-1.465,19.043
1688994414.127,37.598,21.973,38.574,7.812,61.035
1688994414.131,35.645,15.137,40.527,13.184,76.660
1688994414.135,30.762,9.277,42.480,10.742,20.020
1688994414.139,30.273,7.324,43.945,10.254,21.973
1688994414.143,30.762,3.906,47.363,4.395,62.988
1688994414.147,25.391,5.371,43.945,7.812,74.707
1688994414.150,23.926,6.836,41.504,8.301,28.320
1688994414.154,21.484,5.859,38.086,6.836,13.184
1688994414.158,20.508,-6.348,37.598,15.137,58.105
1688994414.162,15.137,-16.602,43.457,12.207,96.680
1688994414.166,19.043,-4.883,36.621,14.648,61.035
1688994414.170,19.531,2.930,34.668,26.367,-5.859
1688994414.174,10.254,-3.418,41.016,22.461,4.883
1688994414.178,11.719,4.395,40.039,23.438,-29.785
1688994414.182,21.484,13.672,41.504,27.832,-36.621
1688994414.186,22.461,9.766,50.781,37.109,47.363
1688994414.190,23.926,11.719,49.316,43.945,46.875
1688994414.193,29.785,15.625,43.945,29.297,61.523
1688994414.197,26.855,6.836,40.039,21.973,89.355
1688994414.201,15.625,1.953,44.434,18.555,85.449
1688994414.205,21.484,8.789,50.293,23.926,87.402
1688994414.209,31.250,20.020,53.711,27.344,14.160
1688994414.213,20.020,22.949,50.293,22.461,-50.781
1688994414.217,27.832,19.043,40.527,25.391,-11.230
1688994414.221,26.367,20.508,46.387,22.949,11.230
1688994414.225,11.719,20.020,48.828,5.859,18.066
1688994414.229,15.137,24.902,57.617,6.836,62.012
1688994414.232,-6.836,11.230,46.387,0.977,37.109
1688994414.236,-19.043,5.371,41.992,-14.648,11.719
1688994414.240,-10.742,20.508,66.895,-9.277,5.859
1688994414.244,-2.441,24.414,87.891,5.371,-4.395
1688994414.248,-7.812,17.090,72.266,-3.906,-11.230
1688994414.252,-27.344,17.090,55.176,-28.809,7.812
1688994414.256,-41.016,22.461,93.262,-34.668,22.461
1688994414.260,-53.223,24.414,112.793,-55.664,27.832
1688994414.264,-54.199,20.996,98.633,-67.871,53.711
1688994414.268,-65.430,26.367,111.328,-64.453,12.207
1688994414.272,-73.730,40.527,106.934,-81.055,-2.930
1688994414.275,-72.754,44.922,92.773,-98.633,28.320
1688994414.279,-91.797,50.293,88.379,-99.609,52.734
1688994414.283,-82.031,67.383,84.473,-78.613,67.871
1688994414.287,-75.195,72.266,83.984,-77.637,32.227
1688994414.291,-69.824,62.012,72.754,-77.148,39.062
1688994414.295,-62.988,57.129,61.035,-77.148,23.926
1688994414.299,-66.406,55.176,50.293,-89.844,5.859
1688994414.303,-53.711,57.617,40.527,-84.961,-6.348
1688994414.307,-27.344,53.711,24.902,-56.152,41.504
1688994414.311,-16.113,17.578,15.625,-37.598,125.977
1688994414.315,-6.348,-12.695,10.742,-38.574,98.633
1688994414.318,9.766,7.324,1.465,-14.648,18.555
1688994414.322,-4.395,7.812,16.602,-2.441,1.953
1688994414.326,4.883,-10.254,21.484,-2.930,64.941
1688994414.330,23.438,-37.598,6.348,8.301,52.734
1688994414.334,8.789,-48.828,7.324,4.395,-24.414
1688994414.338,13.672,-20.996,3.906,10.742,-19.043
1688994414.342,36.621,0.977,-3.906,29.785,-7.812
1688994414.346,35.156,-7.324,0.488,34.180,3.906
1688994414.350,31.738,-30.762,1.465,35.645,64.941
1688994414.354,48.828,-29.297,-0.977,49.316,33.691
1688994414.357,64.453,-18.066,-7.324,62.012,-1.953
1688994414.361,72.266,-18.066,-3.906,73.730,78.613
1688994414.365,76.660,-20.020,4.883,82.031,89.355
1688994414.369,86.426,-20.996,3.906,87.402,66.895
1688994414.373,93.750,-13.184,4.395,89.844,34.180
1688994414.377,93.262,-4.883,3.906,85.938,46.875
1688994414.381,103.027,-6.348,-1.465,85.449,99.609
1688994414.385,102.051,-3.906,4.395,90.820,68.848
1688994414.389,93.750,-0.977,8.789,91.797,14.160
1688994414.393,101.074,-4.883,7.324,99.609,-25.879
1688994414.397,93.262,-5.371,8.301,93.262,-6.348
1688994414.400,76.660,-6.348,14.648,77.148,44.434
1688994414.404,78.613,-5.371,17.578,83.496,65.918
1688994414.408,76.660,-7.324,16.602,87.402,57.617
1688994414.412,71.777,-2.930,15.137,80.078,56.152
1688994414.416,65.430,11.719,12.207,65.430,-4.395
1688994414.420,66.406,15.625,11.719,59.570,0.977
1688994414.424,69.824,17.090,14.160,66.895,83.008
1688994414.428,68.359,16.602,15.625,66.406,15.625
1688994414.432,70.312,12.695,13.672,65.430,44.434
1688994414.436,72.754,9.277,11.719,56.641,99.121
1688994414.439,74.219,8.301,10.254,62.500,32.715
1688994414.443,75.684,7.324,7.324,70.312,-13.184
1688994414.447,82.520,4.395,12.695,76.172,15.625
1688994414.451,87.891,10.742,16.113,82.031,16.113
1688994414.455,85.938,9.766,17.090,70.801,1.465
1688994414.459,79.102,-6.348,20.508,61.035,19.531
1688994414.463,78.125,-7.812,19.043,64.453,39.551
1688994414.467,82.031,-3.906,18.066,67.871,62.500
1688994414.471,79.102,-5.859,16.113,73.242,27.344
1688994414.475,72.754,-9.766,10.254,68.848,80.078
1688994414.479,68.359,-14.160,5.371,49.805,53.223
1688994414.482,60.547,-15.625,5.371,46.387,10.742
1688994414.486,56.641,-15.625,6.836,55.664,67.383
1688994414.490,62.500,-17.578,6.348,61.523,67.871
1688994414.494,57.617,-19.043,10.254,59.570,1.953
1688994414.498,48.340,-22.461,9.277,48.340,-9.277
1688994414.502,56.152,-27.832,10.254,59.082,52.246
1688994414.506,57.617,-27.344,17.090,62.988,-5.859
1688994414.510,42.969,-21.484,16.113,48.828,-24.902
1688994414.514,33.691,-21.973,12.207,35.156,19.043
1688994414.518,35.156,-21.973,9.277,25.391,16.113
1688994414.522,46.387,-16.113,8.301,32.227,42.480
1688994414.525,53.223,-19.043,15.625,38.574,49.316
1688994414.529,53.711,-27.832,26.367,38.574,3.906
1688994414.533,49.316,-29.297,30.762,34.180,-6.836
1688994414.537,41.504,-28.320,31.738,25.879,24.902
1688994414.541,51.270,-21.973,33.691,21.973,28.320
1688994414.545,62.012,-18.066,35.156,28.809,-30.273
1688994414.549,66.406,-20.020,32.715,32.227,-45.898
1688994414.553,68.848,-19.043,29.297,35.645,-1.953
1688994414.557,62.500,-13.184,29.297,34.668,56.152
1688994414.561,60.547,-11.719,29.297,37.598,45.410
1688994414.564,57.129,-10.742,26.367,38.086,-7.324
1688994414.568,54.688,-11.719,24.902,36.133,18.555
1688994414.572,55.176,-18.555,26.367,46.387,22.949
1688994414.576,56.641,-17.090,27.832,49.805,-8.301
1688994414.580,49.805,-21.484,35.156,44.922,27.832
1688994414.584,51.758,-29.297,39.551,43.457,53.223
1688994414.588,57.129,-26.855,32.715,48.828,-11.230
1688994414.592,50.293,-26.855,29.297,47.363,39.551
1688994414.596,33.203,-39.551,31.250,42.480,2.441
1688994414.600,25.391,-35.645,32.227,44.434,-46.875
1688994414.604,23.438,-18.555,34.180,44.922,72.266
1688994414.607,14.160,-16.113,35.156,33.691,51.758
1688994414.611,18.066,-8.301,32.715,27.344,20.020
1688994414.615,18.555,-3.906,29.297,19.531,54.688
1688994414.619,15.137,-6.836,31.250,14.648,9.277
1688994414.623,17.090,-6.348,32.227,15.137,16.113
1688994414.627,23.438,-8.789,27.832,14.648,63.477
1688994414.631,20.020,-15.137,23.926,21.484,41.992
1688994414.635,9.766,-9.766,24.414,22.461,34.180
1688994414.639,20.996,-9.766,25.879,17.090,39.551
1688994414.643,26.367,-10.254,30.273,16.602,68.848
1688994414.647,23.438,-3.906,31.738,23.926,71.777
1688994414.650,21.484,-9.277,29.785,22.949,40.527
1688994414.654,21.484,-17.578,29.785,23.926,8.301
1688994414.658,28.809,-20.508,37.598,33.691,8.789
1688994414.662,26.367,-22.461,46.875,30.762,73.242
1688994414.666,14.648,-9.766,47.852,14.648,52.246
1688994414.670,14.160,-1.465,40.039,11.230,-12.207
1688994414.674,20.996,-0.977,37.109,20.996,21.484
1688994414.678,24.414,2.930,40.039,21.973,85.449
1688994414.682,23.926,1.953,38.574,22.461,62.988
1688994414.686,22.461,-5.859,38.574,22.949,-12.207
1688994414.689,19.531,-6.348,37.109,23.438,-15.137
1688994414.693,16.602,0.000,27.832,21.973,-6.348
1688994414.697,17.578,0.977,24.414,21.973,30.273
1688994414.701,12.695,0.488,28.809,24.414,28.320
1688994414.705,17.578,3.906,30.273,31.738,28.809
1688994414.709,29.297,4.395,33.203,33.691,41.504
1688994414.713,23.926,1.953,33.203,21.973,-34.668
1688994414.717,20.996,-8.301,28.320,27.344,11.230
1688994414.721,27.344,-5.859,28.809,29.785,96.680
1688994414.725,29.297,5.859,29.785,21.484,76.660
1688994414.729,37.109,0.488,28.809,30.273,100.098
1688994414.732,41.992,-1.953,30.762,38.086,89.844
1688994414.736,38.574,1.465,31.738,36.133,52.246
1688994414.740,39.062,1.953,31.738,35.156,85.449
1688994414.744,50.781,10.254,31.250,42.480,87.891
1688994414.748,54.688,11.719,28.809,48.828,38.574
1688994414.752,46.387,-0.977,29.297,55.176,0.000
1688994414.756,46.387,-5.859,25.879,49.316,37.598
1688994414.760,46.387,0.000,28.320,46.387,25.391
1688994414.764,47.363,11.719,36.621,60.547,-26.367
1688994414.768,48.340,9.277,40.039,63.965,3.418
1688994414.771,44.922,-16.602,36.133,44.434,47.852
1688994414.775,67.383,-20.508,47.852,50.293,13.672
1688994414.779,89.355,12.695,69.824,80.078,-9.277
1688994414.783,51.270,12.695,52.246,55.664,-38.086
1688994414.787,18.066,-6.348,31.250,23.438,6.836
1688994414.791,35.645,-2.441,32.227,40.039,37.109
1688994414.795,75.195,20.996,59.570,82.031,27.832
1688994414.799,45.898,34.180,42.480,46.387,82.520
1688994414.803,-0.977,0.977,1.465,-10.742,61.523
1688994414.807,16.113,-49.805,2.441,5.859,32.715
1688994414.811,51.270,-66.406,28.809,44.922,54.199
1688994414.814,122.559,-41.992,106.445,115.234,57.617
1688994414.818,119.141,-28.320,104.004,103.516,-5.371
1688994414.822,29.785,-46.387,22.949,18.066,-30.762
1688994414.826,-18.066,-16.113,-7.324,-10.742,57.129
1688994414.830,-4.883,-6.836,-8.301,7.812,83.984
1688994414.834,20.996,-48.340,3.906,25.391,53.711
1688994414.838,40.039,-21.484,20.996,29.297,0.488
1688994414.842,55.664,-72.266,33.203,56.152,9.766
1688994414.846,68.359,-162.598,46.875,88.867,43.945
1688994414.850,66.895,1.953,46.387,82.520,12.207
1688994414.854,80.078,126.953,35.645,73.242,-2.441
1688994414.857,114.746,13.184,75.684,113.770,5.859
1688994414.861,183.594,-119.141,127.930,216.797,62.012
1688994414.865,238.770,-134.766,88.867,290.527,11.719
1688994414.869,255.371,170.898,54.199,308.594,-34.180
1688994414.873,133.301,479.492,-15.625,176.758,0.977
1688994414.877,-53.223,379.395,-24.414,-7.324,23.926
1688994414.881,-20.996,334.473,68.848,17.578,13.184
1688994414.885,-33.691,408.691,65.430,21.973,0.488
1688994414.889,-131.836,420.898,100.098,-57.617,-5.371
1688994414.893,-141.113,585.938,142.578,-71.777,4.395
1688994414.896,-112.793,659.668,178.711,-48.340,56.152
1688994414.900,-69.824,672.363,211.426,-22.949,40.527
1688994414.904,-38.574,699.707,206.055,-3.906,-17.578
1688994414.908,-9.277,731.934,187.988,15.137,-35.645
1688994414.912,18.066,743.652,176.758,28.809,7.812
1688994414.916,36.133,770.996,165.527,33.691,66.406
1688994414.920,55.176,787.109,154.785,30.762,73.730
1688994414.924,70.312,744.141,148.438,36.621,73.242
1688994414.928,68.359,699.707,138.672,45.898,107.422
1688994414.932,64.453,661.133,132.812,41.504,62.988
1688994414.936,76.172,620.605,129.395,42.969,42.480
1688994414.939,83.984,578.125,123.047,48.828,75.195
1688994414.943,78.613,545.410,114.746,46.875,52.246
1688994414.947,83.984,511.230,109.375,58.105,-11.719
1688994414.951,94.727,465.820,99.609,57.617,79.102
1688994414.955,114.258,431.152,86.426,62.012,54.199
1688994414.959,115.723,398.438,73.242,69.824,6.836
1688994414.963,92.285,352.051,68.359,47.363,39.062
1688994414.967,83.984,300.293,63.477,39.551,41.992
1688994414.971,92.285,267.578,52.734,42.480,35.156
1688994414.975,101.074,246.582,42.969,35.645,-2.930
1688994414.979,104.980,226.074,39.062,25.879,29.297
1688994414.982,97.656,214.844,35.156,10.742,-0.977
1688994414.986,93.262,196.777,24.902,6.836,-35.156
1688994414.990,93.750,157.227,23.926,0.977,-21.973
1688994414.994,86.426,121.094,35.156,-19.043,8.789
1688994414.998,85.938,109.863,38.574,-31.250,20.996
1688994415.002,77.637,112.793,35.645,-41.504,28.809
1688994415.006,66.895,111.328,36.621,-38.086,54.199
1688994415.010,60.059,112.305,31.738,-34.180,-24.902
1688994415.014,49.805,127.441,33.691,-37.109,-16.113
1688994415.018,42.480,134.277,37.109,-44.434,61.523
1688994415.021,37.109,140.625,37.109,-59.570,20.508
1688994415.025,30.273,139.160,34.668,-53.223,13.672
1688994415.029,24.414,138.184,28.809,-42.969,69.824
1688994415.033,19.531,145.020,27.344,-47.363,73.730
1688994415.037,18.066,142.090,25.391,-53.223,17.578
1688994415.041,16.602,133.301,24.414,-46.875,47.852
1688994415.045,18.555,124.023,18.066,-40.527,97.656
1688994415.049,15.625,113.770,14.648,-35.156,47.363
1688994415.053,10.742,107.910,25.879,-31.738,21.484
1688994415.057,6.836,104.004,28.320,-31.250,30.273
1688994415.061,7.324,97.656,29.297,-25.391,11.719
1688994415.064,12.207,102.051,34.180,-20.508,9.766
1688994415.068,16.113,105.469,31.250,-13.184,16.602
1688994415.072,19.531,89.355,30.273,-17.090,33.691
1688994415.076,18.555,83.984,29.785,-22.461,24.414
1688994415.080,17.090,82.520,25.391,-18.555,-19.531
1688994415.084,12.695,84.961,20.996,-18.555,-20.508
1688994415.088,13.672,91.309,14.160,-6.348,19.043
1688994415.092,18.066,92.773,9.277,-0.977,25.879
1688994415.096,15.625,101.074,1.465,-5.859,-9.277
1688994415.100,14.648,101.562,-7.812,-0.977,23.438
1688994415.104,19.531,99.609,-12.207,11.230,47.852
1688994415.107,20.508,102.539,-14.648,20.508,6.836
1688994415.111,22.949,103.027,-16.602,16.602,13.184
1688994415.115,30.762,99.609,-17.090,10.254,33.203
1688994415.119,26.855,92.285,-19.531,12.207,44.434
1688994415.123,28.320,81.543,-24.902,22.461,39.062
1688994415.127,33.203,84.473,-23.438,38.086,42.480
1688994415.131,33.203,84.473,-21.973,39.062,62.012
1688994415.135,43.457,74.219,-28.320,31.738,53.223
1688994415.139,48.828,75.195,-34.668,36.133,16.602
1688994415.143,47.363,81.543,-30.273,32.715,-33.203
1688994415.146,52.734,84.961,-20.020,37.598,-28.809
1688994415.150,47.852,79.102,-10.742,47.852,42.969
1688994415.154,38.086,71.777,-0.977,37.598,49.316
1688994415.158,32.715,74.219,-4.883,25.879,37.109
1688994415.162,27.344,79.102,-1.953,23.926,3.418
1688994415.166,30.273,91.309,4.883,33.691,14.160
1688994415.170,36.133,96.680,1.953,40.039,46.875
1688994415.174,41.504,90.332,-2.930,35.156,66.406
1688994415.178,44.434,83.008,-3.906,35.645,57.617
1688994415.182,43.945,77.637,0.000,41.992,18.555
1688994415.186,45.410,81.055,2.930,46.875,80.566
1688994415.189,39.062,89.844,7.812,39.551,89.844
1688994415.193,31.250,93.750,10.742,32.227,25.391
1688994415.197,25.879,93.750,8.789,24.414,-13.184
1688994415.201,31.250,89.844,7.324,25.879,25.879
1688994415.205,32.227,80.078,8.301,23.438,6.836
1688994415.209,27.344,81.055,5.371,22.949,52.246
1688994415.213,33.691,91.797,4.883,22.949,69.824
1688994415.217,41.992,97.168,5.371,9.277,-7.812
1688994415.221,48.828,96.191,-1.465,10.742,-40.039
1688994415.225,44.922,92.285,-4.395,14.648,17.578
1688994415.228,39.551,95.703,-5.859,14.160,97.168
1688994415.232,34.180,108.887,-4.395,15.625,86.426
1688994415.236,28.320,97.168,-2.930,8.789,26.367
1688994415.240,29.297,90.332,-2.441,14.648,-1.465
1688994415.244,25.879,106.934,1.953,18.066,-27.832
1688994415.248,19.043,105.469,3.906,14.648,6.348
1688994415.252,20.508,105.469,-2.441,15.625,40.039
1688994415.256,23.926,117.676,1.953,11.719,64.941
1688994415.260,23.438,123.047,3.906,7.812,57.617
1688994415.264,21.484,122.559,0.000,11.230,50.781
1688994415.268,20.020,118.652,-2.441,13.672,106.934
1688994415.271,24.414,99.609,-4.395,20.996,58.594
1688994415.275,27.344,91.309,1.465,20.508,40.039
1688994415.279,22.949,109.863,-3.906,5.859,49.805
1688994415.283,19.043,120.117,-9.277,7.324,68.359
1688994415.287,18.066,122.559,-8.789,5.371,74.219
1688994415.291,19.531,127.930,-8.301,3.906,-6.836
1688994415.295,25.391,126.465,-6.348,1.465,0.977
1688994415.299,25.879,124.512,-4.883,-4.395,-5.371
1688994415.303,31.738,112.793,-3.418,7.324,1.465
1688994415.307,36.133,112.793,-2.930,19.043,-20.996
1688994415.311,31.250,117.188,-5.371,20.996,-44.922
1688994415.314,36.133,108.398,-7.324,15.625,-22.949
1688994415.318,37.598,120.117,-4.395,14.160,-6.836
1688994415.322,34.668,135.742,-3.418,20.996,51.270
1688994415.326,35.156,126.465,-3.418,24.414,47.852
1688994415.330,34.668,120.117,2.930,26.855,13.184
1688994415.334,25.391,120.117,2.930,22.949,30.273
1688994415.338,19.043,118.652,0.000,15.625,78.125
1688994415.342,21.484,114.258,0.977,26.367,50.781
1688994415.346,19.043,104.492,3.418,35.156,33.691
1688994415.350,17.578,103.027,3.906,27.832,56.641
1688994415.353,15.137,95.215,-1.953,19.043,27.832
1688994415.357,17.578,87.402,0.488,21.484,54.199
1688994415.361,20.996,83.496,0.488,20.996,7.324
1688994415.365,19.531,74.707,-2.930,13.184,-12.207
1688994415.369,24.902,74.219,-2.441,17.090,-14.648
1688994415.373,30.273,72.266,-1.953,30.762,-32.227
1688994415.377,24.414,73.242,-1.953,28.320,86.426
1688994415.381,21.973,74.707,-2.930,17.090,41.016
1688994415.385,30.762,72.266,-4.395,23.438,-51.758
1688994415.389,32.715,70.801,-12.207,23.438,15.137
1688994415.393,29.297,66.895,-15.137,20.020,22.949
1688994415.396,33.691,73.730,-15.137,17.578,-0.488
1688994415.400,34.668,75.684,-13.672,22.949,37.598
1688994415.404,32.715,75.195,-11.230,34.180,57.617
1688994415.408,33.203,74.219,-5.859,37.109,71.777
1688994415.412,38.086,66.406,3.906,32.227,31.250
1688994415.416,34.668,60.547,6.348,29.297,-0.488
1688994415.420,29.297,51.270,8.301,35.156,52.734
1688994415.424,33.691,45.898,9.766,41.504,6.348
1688994415.428,32.227,46.875,7.812,36.621,-23.438
1688994415.432,31.250,45.410,9.766,37.598,12.695
1688994415.436,32.227,43.945,6.836,42.480,31.738
1688994415.439,39.062,38.086,7.812,37.109,17.090
1688994415.443,38.574,50.293,11.719,34.668,29.297
1688994415.447,42.480,65.430,14.648,41.016,68.848
1688994415.451,51.758,61.035,18.066,43.945,73.242
1688994415.455,50.781,59.082,20.508,39.551,41.992
1688994415.459,51.270,65.430,21.973,39.551,16.602
1688994415.463,58.594,64.941,21.973,41.992,40.039
1688994415.467,61.035,61.523,24.414,43.945,51.758
1688994415.471,51.270,60.547,28.320,43.457,7.324
1688994415.475,45.410,51.758,28.320,30.762,-32.227
1688994415.478,39.551,46.875,22.949,31.738,40.039
1688994415.482,48.828,46.875,20.020,49.316,95.703
1688994415.486,62.500,51.758,16.602,56.641,52.734
1688994415.490,36.133,68.359,19.531,29.297,7.812
1688994415.494,13.184,73.242,28.809,3.906,22.949
1688994415.498,12.695,68.848,30.273,0.000,25.391
1688994415.502,13.672,71.777,28.320,-3.418,67.871
1688994415.506,9.766,67.383,22.949,-0.488,93.750
1688994415.510,8.789,60.059,23.926,1.465,83.008
1688994415.514,1.465,56.641,25.879,-3.906,49.805
1688994415.518,-8.789,49.805,25.391,-4.395,27.832
1688994415.521,-0.977,51.270,23.926,-3.906,61.523
1688994415.525,1.465,53.711,22.949,-2.930,39.551
1688994415.529,2.441,50.293,27.344,5.371,34.180
1688994415.533,9.766,49.805,33.203,3.418,63.477
1688994415.537,17.578,45.410,36.133,1.953,68.359
1688994415.541,18.066,47.852,35.156,4.883,29.297
1688994415.545,18.066,53.223,32.227,12.695,-10.742
1688994415.549,21.484,54.688,24.414,9.277,-2.441
1688994415.553,21.973,54.199,23.438,0.000,-31.738
1688994415.557,31.738,52.734,22.461,0.000,-16.113
1688994415.560,38.086,55.176,21.973,-1.465,34.180
1688994415.564,33.691,50.293,30.762,4.395,21.973
1688994415.568,29.785,49.805,34.180,12.695,-26.855
1688994415.572,21.973,51.758,36.621,12.695,-3.418
1688994415.576,15.625,50.293,41.016,11.230,50.781
1688994415.580,13.184,47.852,42.969,6.836,78.613
1688994415.584,10.254,43.457,43.457,7.812,54.199
1688994415.588,4.883,42.969,38.574,7.812,4.395
1688994415.592,3.418,43.945,33.691,8.301,-14.160
1688994415.596,9.277,40.527,34.180,14.160,26.367
1688994415.600,11.230,44.922,31.738,10.254,55.176
1688994415.603,9.766,49.316,33.691,16.113,50.293
1688994415.607,11.230,46.875,33.691,24.414,78.613
1688994415.611,8.789,41.016,29.297,25.879,55.176
1688994415.615,8.789,40.039,27.344,21.484,39.551
1688994415.619,13.672,42.480,31.250,17.578,60.547
1688994415.623,17.090,41.992,36.621,25.391,33.691
1688994415.627,20.996,47.363,35.156,34.180,54.688
1688994415.631,22.949,52.734,33.691,26.367,51.270
1688994415.635,30.273,52.246,34.668,16.113,41.016
1688994415.639,34.668,48.828,38.574,19.531,66.406
1688994415.643,31.738,42.969,38.574,20.020,67.383
1688994415.646,40.039,38.086,34.180,23.926,19.043
1688994415.650,47.852,31.738,31.250,26.367,24.902
1688994415.654,41.016,31.738,34.668,21.973,22.461
1688994415.658,36.621,35.156,37.109,23.926,-3.418
1688994415.662,34.180,34.668,33.203,24.414,46.387
1688994415.666,33.203,39.551,31.738,27.832,88.867
1688994415.670,32.227,34.180,32.227,32.227,57.129
1688994415.674,31.250,32.227,28.320,34.668,34.180
1688994415.678,34.180,37.598,29.297,34.180,48.340
1688994415.682,33.691,30.762,31.250,29.785,36.621
1688994415.685,29.785,33.691,33.691,35.156,1.953
1688994415.689,26.367,40.527,36.621,38.086,69.336
1688994415.693,24.414,34.180,35.156,34.180,67.871
1688994415.697,23.926,27.832,33.691,26.855,-12.695
1688994415.701,23.926,26.367,39.062,26.367,8.301
1688994415.705,22.949,22.949,47.363,38.086,63.477
1688994415.709,12.695,17.578,48.828,33.691,30.273
1688994415.713,6.348,19.043,46.387,22.949,-6.836
1688994415.717,16.602,18.066,48.828,32.715,0.977
1688994415.721,25.879,10.742,47.852,33.203,19.531
1688994415.725,34.180,13.672,42.969,34.180,8.301
1688994415.728,39.062,20.020,40.039,43.457,95.215
1688994415.732,39.062,21.484,34.668,36.621,133.301
1688994415.736,27.832,23.926,32.227,26.855,32.227
1688994415.740,21.484,23.438,32.227,25.391,26.367
1688994415.744,24.414,20.996,37.598,21.484,16.113
1688994415.748,22.461,23.926,40.039,16.602,22.949
1688994415.752,15.137,22.949,24.902,10.742,41.016
1688994415.756,18.066,36.133,29.297,7.324,57.617
1688994415.760,24.414,43.945,39.062,9.277,56.152
1688994415.764,15.137,38.574,29.785,9.766,2.441
1688994415.768,14.160,44.922,15.137,6.836,-24.902
1688994415.771,13.672,49.805,24.902,2.441,19.531
1688994415.775,1.465,43.945,30.762,3.418,46.387
1688994415.779,-4.395,51.270,14.160,-6.348,40.527
1688994415.783,-1.953,61.523,35.645,-6.348,23.438
1688994415.787,-12.207,57.129,55.176,-8.301,25.879
1688994415.791,-29.297,44.922,35.156,-34.180,58.105
1688994415.795,-34.668,49.805,40.039,-40.039,27.344
1688994415.799,-51.270,59.570,45.410,-53.223,-47.852
1688994415.803,-50.781,69.336,33.203,-62.988,-35.645
1688994415.807,-44.434,81.543,28.809,-52.734,-54.199
1688994415.810,-50.781,80.566,49.316,-53.711,-15.137
1688994415.814,-69.336,85.449,69.336,-83.984,28.320
1688994415.818,-88.379,91.309,64.453,-102.539,42.480
1688994415.822,-86.426,97.168,57.129,-94.238,79.590
1688994415.826,-88.867,98.145,57.617,-100.586,73.242
1688994415.830,-82.520,88.867,59.570,-100.586,24.414
1688994415.834,-60.547,91.797,60.059,-82.520,26.367
1688994415.838,-62.012,84.961,53.711,-88.379,65.918
1688994415.842,-47.852,70.312,48.340,-71.289,73.730
1688994415.846,-42.969,61.523,50.293,-56.152,34.180
1688994415.850,-42.480,52.246,45.898,-51.758,-6.348
1688994415.853,-23.926,46.875,41.504,-41.016,-21.484
1688994415.857,-29.297,43.457,33.203,-51.758,-36.133
1688994415.861,-13.184,40.527,23.926,-38.086,-17.090
1688994415.865,14.648,24.902,21.484,-9.766,11.230
1688994415.869,10.742,15.625,19.531,-6.836,22.949
1688994415.873,15.625,11.719,14.648,3.418,55.176
1688994415.877,20.508,-8.301,16.602,12.695,85.449
1688994415.881,17.090,-14.648,19.531,10.742,95.215
1688994415.885,24.414,-8.789,17.578,15.625,64.941
1688994415.889,31.250,-23.438,16.113,27.344,91.797
1688994415.892,38.574,-42.969,9.766,34.668,82.520
1688994415.896,48.828,-39.062,8.789,34.180,61.523
1688994415.900,61.035,-37.109,14.648,47.852,63.965
1688994415.904,62.988,-32.715,14.648,56.641,4.395
1688994415.908,58.105,-25.391,11.230,45.410,4.395
1688994415.912,59.570,-22.461,11.230,44.434,45.410
1688994415.916,66.406,-26.855,16.602,43.457,-19.043
1688994415.920,70.801,-31.738,22.461,44.922,-32.227
1688994415.924,72.266,-34.180,23.438,62.988,29.785
1688994415.928,76.172,-39.062,24.414,66.895,-0.488
1688994415.932,72.754,-34.668,24.902,59.082,-9.766
1688994415.935,67.871,-33.691,18.555,55.664,-11.719
1688994415.939,64.453,-40.527,13.184,54.199,35.156
1688994415.943,64.941,-45.898,15.137,56.641,41.016
1688994415.947,66.895,-46.387,18.555,61.523,25.879
1688994415.951,57.617,-38.086,21.973,51.270,50.781
1688994415.955,57.129,-33.691,24.414,44.922,26.367
1688994415.959,56.641,-33.203,19.531,43.945,21.484
1688994415.963,52.734,-33.691,19.531,46.875,49.805
1688994415.967,53.711,-32.715,22.949,48.828,38.086
1688994415.971,53.223,-32.715,20.508,42.969,-8.301
1688994415.975,48.340,-35.645,15.625,38.574,43.945
1688994415.978,48.828,-33.691,11.719,41.992,13.184
1688994415.982,52.734,-27.344,12.695,44.434,22.949
1688994415.986,53.711,-26.367,15.625,51.758,49.316
1688994415.990,52.246,-27.344,11.719,51.758,-13.672
1688994415.994,56.641,-19.043,8.789,47.363,-28.809
1688994415.998,66.406,-7.812,10.742,50.293,0.000
1688994416.002,69.824,-6.348,10.254,48.340,34.668
1688994416.006,69.824,-5.371,10.742,54.688,-10.742
1688994416.010,63.965,0.977,9.766,62.500,-25.391
1688994416.014,59.082,4.883,12.695,59.570,14.160
1688994416.017,61.523,2.930,20.996,50.293,65.918
1688994416.021,54.199,-7.812,20.996,52.734,79.590
1688994416.025,52.734,-9.766,23.926,57.617,21.973
1688994416.029,53.711,0.000,26.855,51.270,17.578
1688994416.033,45.410,1.953,21.973,51.270,13.184
1688994416.037,40.527,0.488,23.926,47.363,1.465
1688994416.041,46.875,5.859,27.832,47.363,82.520
1688994416.045,53.223,7.812,32.227,57.129,7.324
1688994416.049,44.434,2.930,37.598,53.711,-38.086
1688994416.053,40.039,-10.254,41.992,49.316,57.617
1688994416.057,39.062,-17.090,42.969,51.758,57.129
1688994416.060,35.156,-6.836,38.574,51.758,4.395
1688994416.064,45.410,3.418,38.574,58.105,22.461
1688994416.068,47.852,1.953,42.480,57.617,50.293
1688994416.072,47.852,1.465,41.992,46.875,57.617
1688994416.076,54.199,0.000,43.945,48.828,79.590
1688994416.080,53.711,-6.836,46.875,56.152,103.027
1688994416.084,55.664,-6.348,47.852,55.176,47.363
1688994416.088,57.617,-2.930,42.480,47.852,-14.160
1688994416.092,57.129,-4.395,36.621,40.039,20.996
1688994416.096,54.688,-9.277,35.156,33.691,38.086
1688994416.100,44.434,-10.254,33.691,29.297,65.430
1688994416.103,40.039,-9.277,32.715,33.203,20.996
1688994416.107,35.156,-8.301,31.250,28.809,-41.016
1688994416.111,28.320,-12.695,27.832,21.973,33.691
1688994416.115,28.320,-7.812,25.391,18.066,34.668
1688994416.119,24.414,-2.930,28.809,7.324,37.109
1688994416.123,20.508,-7.324,27.832,13.672,26.855
1688994416.127,26.367,-4.883,26.367,18.555,1.465
1688994416.131,26.855,-6.348,25.879,20.996,34.668
1688994416.135,29.297,-4.883,26.855,19.531,0.488
1688994416.139,27.832,-5.859,33.203,11.719,-14.160
1688994416.142,20.020,-11.719,41.992,17.578,7.324
1688994416.146,25.391,-15.625,43.945,23.926,67.871
1688994416.150,23.926,-24.902,39.551,22.461,60.547
1688994416.154,14.648,-22.461,36.133,22.949,-13.672
1688994416.158,18.066,-19.531,36.133,24.902,-13.672
1688994416.162,31.250,-21.484,35.156,24.414,38.574
1688994416.166,38.086,-23.438,37.598,25.879,67.383
1688994416.170,29.785,-14.648,42.969,23.438,85.938
1688994416.174,24.414,-0.977,46.387,24.414,57.129
1688994416.178,29.297,1.953,52.734,24.414,0.000
1688994416.182,32.227,3.418,51.758,28.320,13.672
1688994416.185,36.621,-4.883,50.293,36.133,57.129
1688994416.189,37.598,-4.883,53.223,29.785,46.387
1688994416.193,41.504,-2.441,48.828,37.598,0.488
1688994416.197,59.570,-10.742,44.434,62.988,3.418
1688994416.201,53.223,-13.672,40.039,49.316,27.344
1688994416.205,28.320,-6.348,35.156,20.020,-23.438
1688994416.209,19.043,2.930,34.668,16.113,-25.391
1688994416.213,14.160,5.371,34.668,3.906,-14.648
1688994416.217,18.555,2.441,23.926,6.348,15.137
1688994416.221,23.438,2.930,19.531,20.508,28.320
1688994416.224,14.160,5.371,26.855,19.531,45.410
1688994416.228,9.766,-3.906,33.691,16.113,77.637
1688994416.232,-3.418,-13.184,34.180,3.418,19.531
1688994416.236,-9.766,-15.137,26.367,-7.324,9.766
1688994416.240,2.930,-6.348,22.949,4.395,56.641
1688994416.244,9.277,-0.977,24.902,16.113,28.809
1688994416.248,13.184,3.418,20.020,9.277,5.371
1688994416.252,11.230,6.836,18.066,5.859,18.555
1688994416.256,7.324,8.789,20.996,6.348,-30.273
1688994416.260,12.695,13.184,20.020,-0.488,-46.387
1688994416.264,21.484,16.113,20.996,4.395,-1.465
1688994416.267,25.879,8.301,24.414,3.906,-14.160
1688994416.271,23.926,0.488,27.344,3.906,-7.324
1688994416.275,25.879,-1.953,30.273,11.719,26.367
1688994416.279,36.621,-0.977,32.715,18.066,20.508
1688994416.283,46.875,2.930,33.203,32.227,81.543
1688994416.287,48.828,4.395,35.156,29.297,87.891
1688994416.291,47.852,2.441,38.086,24.414,37.109
1688994416.295,50.293,6.836,33.203,28.320,42.969
1688994416.299,46.875,6.836,31.738,32.227,26.855
1688994416.303,46.875,1.953,33.691,43.457,6.836
1688994416.307,52.246,0.488,33.203,47.852,18.066
1688994416.310,45.898,0.000,34.180,48.828,62.988
1688994416.314,48.340,2.930,40.039,54.688,61.035
1688994416.318,44.922,4.395,44.434,56.641,-8.301
1688994416.322,38.086,1.465,40.039,49.805,-0.488
1688994416.326,42.969,0.000,41.016,52.246,37.598
1688994416.330,38.574,3.418,48.828,50.781,79.102
1688994416.334,35.156,6.836,46.387,46.875,59.082
1688994416.338,39.551,6.348,41.504,47.852,44.434
1688994416.342,35.645,3.906,48.340,56.641,64.453
1688994416.346,28.809,2.441,50.781,46.875,43.945
1688994416.349,36.133,7.324,44.922,22.949,9.766
1688994416.353,38.086,8.301,42.480,24.902,11.719
1688994416.357,28.809,6.348,36.621,20.996,43.457
1688994416.361,27.832,5.371,29.297,20.508,42.480
1688994416.365,31.738,-1.465,30.273,19.043,49.316
1688994416.369,34.180,-4.395,28.809,11.719,36.133
1688994416.373,36.133,-0.977,22.461,16.602,45.410
1688994416.377,37.598,2.441,22.461,27.832,66.406
1688994416.381,41.016,6.836,21.973,31.250,58.105
1688994416.385,46.875,12.695,20.020,30.762,28.809
1688994416.389,59.570,13.184,16.602,40.527,51.758
1688994416.392,65.918,9.277,15.137,40.039,65.918
1688994416.396,53.223,8.789,16.113,33.203,8.789
1688994416.400,50.293,5.859,21.973,34.180,2.930
1688994416.404,49.316,5.371,28.809,36.133,48.340
1688994416.408,43.457,10.742,23.438,35.156,62.012
1688994416.412,41.992,7.812,22.949,38.574,50.293
1688994416.416,34.180,8.301,28.809,36.133,63.477
1688994416.420,32.227,14.160,25.391,35.645,51.270
1688994416.424,31.738,16.602,24.902,40.039,43.457
1688994416.428,35.156,14.648,25.391,40.039,42.480
1688994416.432,37.598,16.602,24.902,41.016,39.062
1688994416.435,39.551,24.414,29.297,46.875,-4.883
1688994416.439,40.527,27.344,20.020,41.992,-53.711
1688994416.443,74.219,36.621,-3.418,64.453,10.254
1688994416.447,94.238,40.527,8.789,95.703,23.926
1688994416.451,44.922,23.438,43.945,47.852,0.977
1688994416.455,16.113,15.625,51.758,9.277,9.766
1688994416.459,27.832,19.531,43.945,28.809,44.922
1688994416.463,8.789,20.508,41.016,13.672,19.531
1688994416.467,7.812,14.160,40.039,8.789,37.598
1688994416.471,17.090,9.277,40.527,23.926,64.453
1688994416.474,8.301,11.719,46.387,9.766,48.828
1688994416.478,7.324,16.602,48.828,13.184,14.160
1688994416.482,-6.348,15.625,50.781,8.301,62.988
1688994416.486,-15.625,11.719,56.152,-3.418,122.559
1688994416.490,-20.996,10.254,61.035,3.906,58.105
1688994416.494,-17.578,15.137,56.152,0.977,-16.113
1688994416.498,-10.742,16.602,52.246,-3.906,48.828
1688994416.502,-8.301,14.648,43.945,8.301,76.660
1688994416.506,-5.371,15.625,35.645,13.672,3.418
1688994416.510,3.906,17.578,41.992,18.066,-22.461
1688994416.514,2.441,17.090,46.875,11.230,-16.113
1688994416.517,-6.348,8.789,45.410,11.230,-9.766
1688994416.521,2.930,8.301,44.434,20.020,-5.371
1688994416.525,16.113,17.578,46.875,21.973,3.418
1688994416.529,9.277,22.461,39.551,23.926,9.766
1688994416.533,13.672,24.902,35.156,19.531,6.836
1688994416.537,29.297,17.578,39.551,27.832,14.160
1688994416.541,33.691,13.184,40.039,35.156,4.395
1688994416.545,33.203,12.695,39.062,32.715,32.227
1688994416.549,38.574,12.207,40.039,30.273,23.438
1688994416.553,32.715,19.043,43.457,17.578,-22.461
1688994416.557,26.367,12.207,48.340,17.578,10.254
1688994416.560,29.297,6.348,54.688,28.320,20.996
1688994416.564,37.109,19.531,54.199,25.391,55.176
1688994416.568,42.480,16.113,48.828,29.297,56.641
1688994416.572,45.898,8.789,51.270,28.809,48.340
1688994416.576,50.781,20.996,50.293,24.414,60.059
1688994416.580,45.410,24.902,47.852,36.621,50.781
1688994416.584,39.062,30.273,46.387,32.715,72.266
1688994416.588,41.992,30.762,47.852,27.344,65.918
1688994416.592,40.527,27.832,44.922,25.879,0.977
1688994416.596,34.180,32.715,41.504,23.438,11.230
1688994416.599,36.133,32.227,41.016,29.785,25.879
1688994416.603,36.621,25.391,38.086,35.156,-41.504
1688994416.607,41.504,20.508,36.621,35.156,-9.766
1688994416.611,47.363,22.949,34.180,31.738,-34.668
1688994416.615,44.434,20.508,29.785,34.668,-24.902
1688994416.619,49.316,19.043,31.250,47.363,58.105
1688994416.623,43.457,19.531,33.203,57.617,-12.695
1688994416.627,40.039,19.531,28.320,50.781,-28.809
1688994416.631,44.434,18.066,33.203,48.340,41.504
1688994416.635,43.457,16.113,35.645,49.316,41.992
1688994416.639,40.527,15.137,26.855,47.363,45.898
1688994416.642,42.480,20.020,24.414,48.340,17.578
1688994416.646,48.340,28.320,29.785,49.316,-7.812
1688994416.650,48.340,24.414,25.391,53.711,35.156
1688994416.654,40.527,23.438,19.043,46.387,19.531
1688994416.658,40.527,21.973,13.672,37.109,67.383
1688994416.662,46.387,13.672,16.602,44.922,78.125
1688994416.666,37.598,14.648,19.531,52.734,8.789
1688994416.670,32.227,9.277,18.066,47.363,-1.953
1688994416.674,28.809,3.418,20.508,43.457,42.480
1688994416.678,27.832,6.836,16.113,46.387,107.422
1688994416.681,33.203,0.488,20.020,45.898,80.078
1688994416.685,33.691,-2.930,25.391,44.922,64.453
1688994416.689,30.273,-10.742,21.484,36.621,88.867
1688994416.693,19.531,-24.414,21.973,30.762,41.504
1688994416.697,6.836,-10.742,21.973,22.461,38.574
1688994416.701,10.742,9.277,20.020,22.461,34.180
1688994416.705,20.508,-4.395,15.625,37.109,8.301
1688994416.709,29.297,-19.043,11.719,35.156,66.406
1688994416.713,51.758,0.488,23.438,49.805,109.375
1688994416.717,35.156,16.113,27.344,30.762,76.172
1688994416.721,6.348,22.949,18.066,-1.953,23.438
1688994416.724,13.184,26.367,21.973,3.906,30.762
1688994416.728,20.020,19.043,18.555,9.766,41.016
1688994416.732,21.973,15.625,15.625,7.812,27.832
1688994416.736,19.531,12.207,21.484,0.488,-4.883
1688994416.740,9.277,3.906,21.973,3.418,-31.738
1688994416.744,17.090,5.371,20.508,18.066,-23.438
1688994416.748,20.996,8.789,22.461,18.066,6.836
1688994416.752,18.555,6.836,26.367,16.113,46.875
1688994416.756,15.137,-2.930,22.949,15.137,27.832
1688994416.760,20.996,-5.859,19.043,25.391,0.488
1688994416.764,26.855,0.977,27.832,32.227,10.742
1688994416.767,17.090,2.441,31.738,24.414,46.875
1688994416.771,18.066,7.324,29.297,21.973,57.129
1688994416.775,12.695,6.348,30.762,15.137,20.020
1688994416.779,7.324,6.836,31.250,13.184,41.016
1688994416.783,19.531,7.324,36.133,15.137,67.871
1688994416.787,16.602,11.230,37.598,9.277,67.383
1688994416.791,6.348,18.555,33.691,6.348,75.195
1688994416.795,8.301,17.090,32.715,2.441,87.402
1688994416.799,5.859,10.742,25.391,2.441,62.500
1688994416.803,11.719,11.719,37.598,7.324,51.758
1688994416.806,10.742,15.625,52.246,11.719,-21.484
1688994416.810,6.348,20.996,39.551,0.000,-53.711
1688994416.814,12.207,28.320,40.039,0.977,52.246
1688994416.818,13.672,33.203,52.246,11.719,62.012
1688994416.822,20.020,34.180,41.016,6.836,-20.020
1688994416.826,19.043,27.344,27.832,3.418,-41.016
1688994416.830,11.719,28.320,42.480,1.953,-35.645
1688994416.834,4.395,35.156,41.016,-3.418,0.977
1688994416.838,-7.812,33.203,32.715,-12.695,57.617
1688994416.842,-6.836,38.574,47.363,-11.719,23.438
1688994416.846,-13.184,41.504,50.293,-16.113,27.832
1688994416.849,-35.645,39.551,43.457,-36.621,-7.812
1688994416.853,-40.039,41.992,40.039,-51.758,-8.301
1688994416.857,-36.621,44.922,52.734,-56.152,82.520
1688994416.861,-41.504,39.062,61.035,-54.688,101.074
1688994416.865,-45.410,35.156,57.617,-61.523,48.828
1688994416.869,-45.410,42.480,65.918,-65.430,47.852
1688994416.873,-51.758,48.340,69.336,-74.707,20.508
1688994416.877,-54.199,54.688,63.477,-70.801,0.000
1688994416.881,-45.898,47.852,54.199,-51.758,29.297
1688994416.885,-37.598,39.062,43.457,-41.016,-19.043
1688994416.889,-24.902,38.086,38.086,-32.227,4.883
1688994416.892,-19.043,28.809,34.180,-19.531,72.754
1688994416.896,-12.207,13.184,34.668,-8.301,10.254
1688994416.900,2.930,1.465,40.039,0.977,-35.156
1688994416.904,13.672,-1.465,36.133,10.742,19.531
1688994416.908,17.090,3.906,28.320,13.184,40.039
1688994416.912,20.996,4.395,20.020,10.254,43.945
1688994416.916,29.785,2.930,12.207,22.461,40.039
1688994416.920,44.434,7.812,5.859,35.645,40.039
1688994416.924,49.316,3.906,0.977,37.598,39.551
1688994416.928,45.898,1.953,-5.371,43.457,40.039
1688994416.931,44.434,7.812,-5.859,38.574,5.859
1688994416.935,40.527,7.324,0.488,37.598,-32.715
1688994416.939,41.504,7.324,0.977,44.922,-17.090
1688994416.943,52.246,6.836,3.418,48.828,-5.371
1688994416.947,51.758,0.488,8.301,54.688,-16.602
1688994416.951,41.016,-1.953,9.277,48.828,60.547
1688994416.955,46.875,-8.301,10.254,49.805,65.918
1688994416.959,53.711,-7.324,13.184,60.547,-43.945
1688994416.963,54.199,2.441,13.672,59.570,-41.992
1688994416.967,49.316,5.371,7.812,64.453,50.781
1688994416.971,52.734,6.348,0.977,57.617,46.387
1688994416.974,54.688,8.301,1.465,46.875,32.227
1688994416.978,50.781,7.812,0.488,47.852,79.590
1688994416.982,57.617,5.371,3.906,56.152,93.262
1688994416.986,52.734,7.812,0.488,50.293,56.152
1688994416.990,45.410,7.812,-3.418,42.480,36.621
1688994416.994,47.363,4.883,5.371,35.645,66.406
1688994416.998,46.387,9.766,13.672,40.039,23.438
1688994417.002,41.992,14.648,16.113,44.922,54.199
1688994417.006,36.133,18.066,16.113,43.945,67.871
1688994417.010,31.250,20.996,13.672,43.457,7.324
1688994417.013,34.180,20.508,12.207,36.621,-10.254
1688994417.017,32.715,14.160,17.090,37.598,-29.785
1688994417.021,30.762,14.648,20.508,43.945,-22.949
1688994417.025,33.203,12.207,17.090,42.480,4.395
1688994417.029,31.250,10.742,16.113,31.738,46.875
1688994417.033,32.227,15.137,22.949,28.809,23.926
1688994417.037,37.598,14.648,30.273,37.109,-37.109
1688994417.041,41.016,16.113,33.203,46.387,8.789
1688994417.045,39.062,14.648,32.227,41.992,63.477
1688994417.049,41.504,2.441,32.715,33.691,45.898
1688994417.053,40.527,8.301,25.879,36.621,62.988
1688994417.056,41.992,23.926,22.949,39.062,62.500
1688994417.060,42.969,22.461,29.785,42.969,27.344
1688994417.064,43.457,18.066,34.668,43.945,54.688
1688994417.068,49.316,20.020,35.645,40.527,54.688
1688994417.072,50.781,19.531,35.645,39.551,25.879
1688994417.076,52.246,20.996,33.203,40.527,47.363
1688994417.080,51.270,18.555,33.203,45.410,46.387
1688994417.084,49.316,14.648,36.133,47.852,47.852
1688994417.088,48.340,11.230,39.551,44.922,66.895
1688994417.092,41.992,9.277,38.574,32.227,38.574
1688994417.096,38.086,9.277,32.715,31.250,10.254
1688994417.099,38.574,13.672,33.203,41.504,-6.348
1688994417.103,31.738,15.625,31.738,38.086,-6.836
1688994417.107,24.414,8.789,33.203,38.574,12.207
1688994417.111,24.902,11.230,40.039,35.645,23.438
1688994417.115,25.391,9.766,42.969,36.621,36.133
1688994417.119,23.438,2.930,39.062,35.156,-5.859
1688994417.123,36.133,2.930,30.762,41.504,14.160
1688994417.127,45.410,0.488,34.180,47.363,35.645
1688994417.131,28.320,7.324,30.762,28.809,9.277
1688994417.135,24.414,16.113,21.973,18.066,-23.438
1688994417.138,25.391,16.113,25.391,22.949,-41.992
1688994417.142,24.902,20.020,28.809,26.367,20.020
1688994417.146,35.645,17.578,21.484,25.391,40.527
1688994417.150,41.992,13.672,18.066,24.414,48.828
1688994417.154,41.992,16.602,20.020,26.367,18.555
1688994417.158,41.504,8.301,22.461,29.785,-40.039
1688994417.162,41.504,3.418,22.461,31.738,-24.902
1688994417.166,38.086,12.695,19.531,33.203,-1.953
1688994417.170,46.875,8.301,21.484,28.809,20.020
1688994417.174,53.711,2.441,21.484,26.367,12.695
1688994417.178,45.410,8.301,21.484,33.691,-27.344
1688994417.181,44.922,13.184,18.066,44.434,4.883
1688994417.185,49.805,13.672,13.184,42.480,26.367
1688994417.189,39.062,11.230,17.090,33.691,3.906
1688994417.193,24.414,8.789,17.578,39.551,6.348
1688994417.197,27.832,5.371,20.020,35.645,-2.930
1688994417.201,27.832,4.883,16.602,32.715,13.672
1688994417.205,27.832,-0.488,14.648,40.527,55.664
1688994417.209,24.414,-2.441,22.461,35.156,15.625
1688994417.213,20.508,3.418,24.902,35.156,12.695
1688994417.217,29.297,5.371,23.926,42.480,55.176
1688994417.221,37.109,2.930,26.855,50.781,80.566
1688994417.224,40.527,0.488,25.391,47.852,77.148
1688994417.228,47.363,0.000,28.320,40.527,44.922
1688994417.232,61.523,-1.953,27.344,40.527,70.801
1688994417.236,59.082,0.000,23.438,43.457,74.707
1688994417.240,51.758,8.301,21.484,43.457,86.426
1688994417.244,63.965,8.301,18.555,34.668,88.379
1688994417.248,62.988,4.395,21.973,33.203,82.520
1688994417.252,54.199,5.371,23.926,36.621,127.441
1688994417.256,58.594,6.348,20.020,40.527,67.871
1688994417.260,62.988,5.371,20.996,41.504,0.488
1688994417.263,51.758,-1.953,29.297,40.527,37.109
1688994417.267,46.387,-4.395,32.715,39.062,48.828
1688994417.271,57.617,-0.977,37.109,31.250,11.230
1688994417.275,53.223,-0.977,46.875,29.297,26.367
1688994417.279,45.898,-2.930,42.480,26.367,0.488
1688994417.283,48.340,-0.488,35.645,30.273,-49.805
1688994417.287,42.480,-7.324,38.574,29.297,-25.391
1688994417.291,28.320,-13.672,41.992,22.949,37.109
1688994417.295,27.344,-3.906,36.621,29.785,36.133
1688994417.299,26.855,1.465,35.156,33.691,30.762
1688994417.303,28.320,0.488,36.621,42.969,58.105
1688994417.306,29.297,-0.488,38.086,44.434,62.988
1688994417.310,27.832,7.324,42.480,34.668,64.453
1688994417.314,32.715,12.207,39.551,33.691,60.059
1688994417.318,38.574,15.625,41.992,43.945,28.809
1688994417.322,42.480,14.648,47.852,41.504,23.438
1688994417.326,40.527,7.324,46.875,29.785,5.371
1688994417.330,35.156,6.836,44.922,22.949,-37.598
1688994417.334,33.203,13.672,52.734,18.555,17.578
1688994417.338,42.480,6.836,54.199,20.020,16.113
1688994417.342,40.527,1.953,41.992,25.391,-10.742
1688994417.345,26.367,18.066,34.180,24.414,-17.090
1688994417.349,20.996,27.832,43.945,17.578,-9.277
1688994417.353,18.066,22.949,45.410,10.742,-12.207
1688994417.357,19.043,16.113,34.180,11.230,-5.859
1688994417.361,18.555,15.625,28.320,15.625,27.344
1688994417.365,13.672,15.137,28.809,15.137,6.836
1688994417.369,20.020,14.648,28.320,13.184,41.504
1688994417.373,20.020,13.672,22.949,11.719,55.664
1688994417.377,21.973,10.254,14.648,18.555,28.320
1688994417.381,44.434,13.184,-4.395,42.480,23.438
1688994417.385,30.762,16.113,5.859,34.668,55.664
1688994417.388,-3.906,7.324,32.227,12.695,54.199
1688994417.392,0.488,10.254,31.250,22.949,31.738
1688994417.396,20.020,13.184,26.855,20.996,62.012
1688994417.400,27.344,10.254,22.949,25.879,72.266
1688994417.404,25.879,25.879,20.996,36.133,73.242
1688994417.408,24.414,32.715,21.973,20.996,23.926
1688994417.412,30.762,32.227,19.043,13.672,-51.758
1688994417.416,35.645,37.109,13.184,18.066,1.953
1688994417.420,39.551,26.855,5.859,21.973,67.871
1688994417.424,40.527,20.996,14.160,24.414,13.672
1688994417.428,40.527,27.832,22.461,28.809,60.547
1688994417.431,41.992,25.879,19.531,29.297,46.387
1688994417.435,33.691,23.438,20.996,23.438,-12.695
1688994417.439,39.062,20.508,22.949,28.809,7.812
1688994417.443,40.527,8.789,23.438,29.297,-17.578
1688994417.447,33.691,1.953,18.555,28.809,16.113
1688994417.451,35.156,6.836,17.578,25.879,39.551
1688994417.455,32.715,0.488,20.020,25.391,15.137
1688994417.459,27.832,-2.441,21.973,25.391,41.504
1688994417.463,24.902,5.371,31.738,24.414,102.539
1688994417.467,17.090,4.883,40.527,24.902,66.895
1688994417.470,10.254,-1.465,41.504,26.855,16.602
1688994417.474,9.766,7.324,43.457,33.691,10.742
1688994417.478,18.555,13.672,47.852,45.410,34.668
1688994417.482,25.879,11.230,54.199,48.340,61.523
1688994417.486,32.227,12.207,59.570,56.641,31.250
1688994417.490,47.852,5.371,62.012,62.500,-26.855
1688994417.494,57.617,-2.930,61.035,61.035,33.691
1688994417.498,68.359,10.254,56.641,61.523,73.242
1688994417.502,75.195,13.672,62.500,59.082,-4.395
1688994417.506,78.613,31.250,75.684,60.547,28.809
1688994417.510,85.938,62.500,69.336,53.223,40.039
1688994417.513,77.637,64.453,66.895,52.246,45.898
1688994417.517,74.219,57.129,51.270,50.781,75.684
1688994417.521,70.801,43.457,35.156,42.480,37.109
1688994417.525,67.871,59.570,51.270,38.086,-6.348
1688994417.529,53.711,62.988,59.570,22.949,12.695
1688994417.533,25.391,59.082,63.477,-0.488,33.691
1688994417.537,10.742,62.988,59.570,-11.719,79.590
1688994417.541,-10.742,64.941,62.988,-28.320,73.242
1688994417.545,-36.133,62.500,70.801,-44.434,27.832
1688994417.549,-57.129,57.617,79.102,-70.801,9.277
1688994417.553,-81.543,62.500,87.402,-101.074,-14.648
1688994417.556,-96.680,68.359,90.820,-104.004,30.762
1688994417.560,-107.910,77.637,100.586,-108.887,60.059
1688994417.564,-134.766,74.219,109.375,-139.160,43.945
1688994417.568,-143.555,69.336,112.793,-140.625,36.133
1688994417.572,-136.719,66.895,113.281,-117.676,-0.488
1688994417.576,-131.348,50.293,120.117,-98.145,16.602
1688994417.580,-125.000,40.039,109.375,-84.961,138.672
1688994417.584,-103.516,49.805,82.031,-84.473,78.125
1688994417.588,-83.984,50.781,70.801,-74.707,41.016
1688994417.592,-59.570,34.668,71.777,-41.992,62.012
1688994417.595,-35.645,20.508,69.336,-10.254,0.977
1688994417.599,-22.461,9.277,65.430,7.324,3.418
1688994417.603,16.113,1.465,62.500,47.852,48.828
1688994417.607,48.828,1.465,55.176,62.012,66.406
1688994417.611,55.664,-6.348,42.969,50.781,13.184
1688994417.615,68.848,-8.301,39.062,69.824,-1.953
1688994417.619,88.379,-2.930,36.133,77.637,53.711
1688994417.623,85.449,-8.301,32.227,81.543,53.711
1688994417.627,89.844,-8.789,28.320,96.191,-14.160
1688994417.631,87.891,-6.836,31.738,81.543,8.789
1688994417.635,80.078,-4.395,30.762,66.406,65.430
1688994417.638,84.473,-6.836,29.297,69.336,42.969
1688994417.642,75.195,-12.207,30.762,59.082,44.434
1688994417.646,63.477,-14.648,27.344,56.152,24.902
1688994417.650,57.617,-14.160,26.855,53.711,40.039
1688994417.654,49.316,-16.113,18.066,38.574,22.949
1688994417.658,41.992,-20.020,12.207,35.645,-17.090
1688994417.662,31.250,-20.020,13.672,38.574,-29.785
1688994417.666,27.344,-21.973,14.648,35.645,12.695
1688994417.670,33.691,-21.484,17.090,33.691,-10.742
1688994417.674,24.902,-17.090,18.555,23.926,-6.348
1688994417.678,13.672,-16.602,20.020,13.672,119.141
1688994417.681,17.090,-20.508,24.414,20.996,106.445
1688994417.685,25.391,-22.461,23.438,27.344,59.082
1688994417.689,30.762,-16.602,14.160,27.832,29.785
1688994417.693,35.645,-21.484,12.695,33.691,10.742
1688994417.697,39.551,-22.461,17.090,40.039,38.574
1688994417.701,42.969,-17.578,14.160,46.387,43.945
1688994417.705,41.504,-16.602,13.672,43.945,20.020
1688994417.709,40.039,-10.254,16.602,37.109,30.762
1688994417.713,44.434,-8.301,15.625,44.922,31.250
1688994417.717,44.922,-4.883,18.066,47.852,28.320
1688994417.720,62.012,0.000,20.020,48.340,-4.883
1688994417.724,66.895,-1.953,24.414,47.852,-9.277
1688994417.728,49.316,-6.836,25.391,50.781,25.879
1688994417.732,50.293,-7.324,19.043,50.293,-4.883
1688994417.736,47.363,-6.348,20.996,39.062,41.504
1688994417.740,51.270,-6.836,21.973,44.434,56.152
1688994417.744,49.805,-0.488,20.996,52.246,-41.504
1688994417.748,43.945,5.859,17.578,42.969,-12.207
1688994417.752,48.340,-10.254,16.602,40.527,22.949
1688994417.756,38.086,-16.113,20.020,40.527,20.020
1688994417.760,37.109,-0.488,21.973,42.480,-22.461
1688994417.763,41.992,9.766,23.438,47.363,29.785
1688994417.767,41.992,16.113,19.043,39.551,70.801
1688994417.771,43.457,18.066,15.137,38.574,6.348
1688994417.775,47.852,15.137,10.254,34.180,22.461
1688994417.779,46.875,19.043,6.348,26.855,28.809
1688994417.783,46.387,18.555,-2.930,27.344,50.293
1688994417.787,49.805,13.672,-8.301,27.344,71.777
1688994417.791,41.016,26.855,-2.441,19.531,45.410
1688994417.795,35.156,30.762,-0.488,15.137,62.012
1688994417.799,39.062,23.438,-0.488,19.043,14.160
1688994417.802,33.691,20.020,0.488,18.555,-12.207
1688994417.806,26.367,15.137,-4.395,9.766,9.277
1688994417.810,32.715,12.695,-8.789,6.348,12.695
1688994417.814,35.645,19.043,-5.859,12.695,65.430
1688994417.818,35.645,19.531,-2.441,13.672,87.891
1688994417.822,31.738,15.137,-0.488,24.414,92.773
1688994417.826,27.832,19.043,3.418,20.508,75.684
1688994417.830,31.250,14.160,6.836,8.789,42.969
1688994417.834,24.902,4.883,11.230,6.836,-1.465
1688994417.838,22.461,9.277,17.578,21.973,28.809
1688994417.842,26.367,14.648,19.043,34.180,43.457
1688994417.845,23.926,16.113,19.531,35.156,23.926
1688994417.849,26.367,12.695,21.973,32.227,58.105
1688994417.853,34.180,6.836,26.855,28.809,65.918
1688994417.857,37.598,8.301,29.297,38.086,70.801
1688994417.861,38.086,9.277,32.227,51.270,4.395
1688994417.865,42.480,9.766,33.203,55.664,-41.992
1688994417.869,48.340,9.766,28.809,49.805,40.527
1688994417.873,45.898,8.789,33.691,53.223,66.895
1688994417.877,48.340,8.789,37.109,56.152,54.688
1688994417.881,51.758,7.812,34.668,54.199,82.031
1688994417.885,47.852,9.277,34.180,60.547,52.246
1688994417.888,46.387,1.465,26.855,53.711,4.883
1688994417.892,44.434,-3.418,21.973,43.457,-16.602
1688994417.896,42.969,6.836,30.273,49.805,-68.848
1688994417.900,46.875,11.719,25.391,46.875,-49.316
1688994417.904,42.480,12.207,21.973,36.133,-2.441
1688994417.908,36.133,16.602,23.438,41.016,-21.973
1688994417.912,41.016,19.043,14.648,31.738,31.250
1688994417.916,40.527,20.508,14.648,23.926,38.574
1688994417.920,36.133,15.137,14.648,36.133,27.832
1688994417.924,29.785,4.883,12.207,33.203,-1.953
1688994417.927,34.180,11.230,13.672,17.578,10.742
1688994417.931,37.598,11.719,18.555,13.672,44.922
1688994417.935,26.855,15.625,22.461,20.996,-21.973
1688994417.939,30.273,23.438,21.973,24.902,-24.414
1688994417.943,29.297,20.508,21.484,19.531,14.648
1688994417.947,25.879,14.160,26.855,19.531,80.078
1688994417.951,18.066,8.789,31.250,17.578,74.707
1688994417.955,16.113,7.812,35.156,29.297,49.316
1688994417.959,17.578,11.719,40.039,38.086,73.242
1688994417.963,14.160,8.789,36.133,33.691,81.543
1688994417.967,13.184,2.441,32.715,26.855,58.105
1688994417.970,16.602,2.441,30.273,14.648,22.949
1688994417.974,11.719,6.348,30.273,19.531,25.391
1688994417.978,10.742,7.324,32.227,28.809,74.219
1688994417.982,14.160,4.395,29.297,28.320,67.871
1688994417.986,19.531,0.488,26.367,30.273,27.832
1688994417.990,24.902,1.953,27.832,26.367,109.375
1688994417.994,25.391,0.977,29.785,21.973,90.332
1688994417.998,21.973,0.488,25.391,17.578,-6.836
1688994418.002,21.484,3.418,20.508,19.531,-0.488
1688994418.006,20.996,-2.441,20.020,24.902,-2.930
1688994418.010,24.414,-11.230,20.508,11.719,51.270
1688994418.013,24.414,-13.672,24.902,12.207,52.734
1688994418.017,28.320,-20.996,22.461,21.973,1.465
1688994418.021,42.480,-20.020,14.648,29.297,-1.953
1688994418.025,38.574,2.441,14.160,35.156,12.207
1688994418.029,20.996,16.602,15.137,14.160,31.250
1688994418.033,29.297,14.160,24.414,13.672,-11.230
1688994418.037,29.297,12.695,31.250,29.297,-20.996
1688994418.041,2.441,11.230,29.297,21.484,29.785
1688994418.045,4.883,-1.953,26.367,16.602,33.691
1688994418.049,10.254,-10.254,22.949,16.602,33.691
1688994418.052,7.324,-2.930,23.926,12.207,41.992
1688994418.056,8.301,8.301,24.902,12.695,-16.113
1688994418.060,19.043,-3.418,22.461,21.973,14.648
1688994418.064,26.855,-8.789,17.090,25.391,47.363
1688994418.068,19.531,2.930,10.742,13.672,22.461
1688994418.072,20.996,3.906,10.742,8.789,2.441
1688994418.076,35.156,6.348,7.812,22.461,-29.785
1688994418.080,38.574,9.277,8.301,31.738,-14.160
1688994418.084,34.668,4.395,10.742,33.691,21.484
1688994418.088,39.062,4.395,14.160,29.297,30.762
1688994418.092,40.527,9.766,15.625,27.344,38.574
1688994418.095,39.551,-1.465,17.090,37.598,87.891
1688994418.099,41.504,-4.883,24.414,46.387,15.137
1688994418.103,42.480,0.977,33.203,49.805,-18.066
1688994418.107,39.062,3.906,37.109,47.363,13.672
1688994418.111,39.551,12.207,31.250,43.945,43.945
1688994418.115,43.945,12.207,31.738,49.805,62.500
1688994418.119,39.551,3.418,31.250,50.293,76.172
1688994418.123,37.109,-0.488,30.762,49.316,81.543
1688994418.127,33.691,6.348,28.320,47.363,25.391
1688994418.131,30.762,8.789,25.879,42.969,21.484
1688994418.134,23.926,9.766,32.227,50.781,71.289
1688994418.138,25.391,10.254,29.297,41.992,112.305
1688994418.142,30.762,10.254,27.344,31.250,81.543
1688994418.146,27.832,12.695,33.691,35.156,76.172
1688994418.150,26.367,5.859,30.273,27.344,80.078
1688994418.154,24.414,0.000,22.949,22.461,11.719
1688994418.158,32.227,5.371,23.438,23.926,26.367
1688994418.162,31.738,4.395,28.320,17.578,59.570
1688994418.166,23.438,-1.465,28.809,12.695,1.465
1688994418.170,33.203,-3.418,25.879,18.555,42.480
1688994418.174,33.203,3.418,25.879,29.785,33.691
1688994418.177,35.156,-3.906,28.320,32.227,9.277
1688994418.181,41.504,-14.160,20.508,37.109,35.156
1688994418.185,48.340,-15.625,22.461,39.551,25.391
1688994418.189,53.711,-5.859,27.344,42.969,98.633
1688994418.193,50.293,15.137,23.926,44.434,59.570
1688994418.197,52.734,18.066,31.738,44.922,-34.180
1688994418.201,56.641,21.484,30.273,47.363,-58.594
1688994418.205,57.129,20.020,31.738,45.898,-1.953
1688994418.209,50.781,17.578,37.598,40.039,92.773
1688994418.213,45.410,17.090,38.086,41.504,98.633
1688994418.217,40.039,9.766,36.621,45.898,23.438
1688994418.220,32.715,14.648,37.598,46.875,-31.250
1688994418.224,28.809,21.484,43.457,36.621,23.438
1688994418.228,24.414,18.555,48.828,24.902,17.578
1688994418.232,24.414,19.043,45.898,35.645,-12.695
1688994418.236,32.715,15.625,41.504,41.504,10.742
1688994418.240,31.738,7.812,39.062,30.273,5.859
1688994418.244,21.484,10.742,36.621,23.438,16.113
1688994418.248,17.090,15.625,43.457,18.066,-17.090
1688994418.252,20.508,15.137,48.340,22.461,32.715
1688994418.256,20.996,19.531,42.480,30.762,41.992
1688994418.259,40.039,24.902,41.016,47.852,20.508
1688994418.263,43.457,21.973,46.875,41.504,13.672
1688994418.267,31.250,17.578,49.805,25.391,-6.348
1688994418.271,37.598,21.484,46.387,31.250,-12.695
1688994418.275,32.715,19.043,46.387,35.156,-29.785
1688994418.279,30.762,15.625,41.992,41.504,-5.859
1688994418.283,30.762,17.578,33.203,40.527,-5.859
1688994418.287,30.273,17.090,31.250,37.109,45.898
1688994418.291,40.527,21.484,33.203,32.715,51.758
1688994418.295,34.668,18.066,36.621,38.086,-15.625
1688994418.299,34.668,14.648,33.691,45.898,1.465
1688994418.302,41.016,16.602,30.273,40.039,30.762
1688994418.306,34.180,16.113,29.297,33.691,34.180
1688994418.310,30.273,13.184,35.156,37.598,8.789
1688994418.314,28.809,14.648,36.133,41.504,37.109
1688994418.318,39.551,14.160,36.621,44.434,-9.277
1688994418.322,40.527,15.137,42.480,46.387,-5.371
1688994418.326,37.109,17.578,41.016,44.434,78.125
1688994418.330,40.527,18.066,37.109,49.805,2.441
1688994418.334,33.691,15.137,38.086,46.387,10.254
1688994418.338,30.273,10.254,31.250,32.227,43.945
1688994418.342,33.691,6.836,25.391,40.527,54.688
1688994418.345,39.551,7.324,29.785,40.527,45.410
1688994418.349,38.574,12.695,32.227,36.621,28.320
1688994418.353,35.156,13.184,31.738,39.062,53.223
1688994418.357,40.039,7.324,30.273,35.156,-37.598
1688994418.361,43.945,11.719,31.738,33.203,-30.273
1688994418.365,40.039,17.578,31.738,27.344,12.695
1688994418.369,43.457,16.602,33.691,25.391,-17.090
1688994418.373,48.340,14.648,35.645,30.762,41.992
1688994418.377,35.156,15.625,24.902,35.156,73.242
1688994418.381,29.297,16.602,22.949,29.297,32.227
1688994418.384,27.344,17.578,28.809,15.137,39.551
1688994418.388,35.156,18.555,29.297,29.785,18.066
1688994418.392,37.598,17.578,30.273,44.922,5.371
1688994418.396,33.203,16.602,32.227,19.531,4.395
1688994418.400,39.062,15.137,39.551,17.090,5.371
1688994418.404,33.691,14.160,39.062,24.902,7.324
1688994418.408,30.273,6.348,33.691,19.043,3.418
1688994418.412,28.809,5.371,35.645,21.484,36.133
1688994418.416,29.785,9.277,32.227,30.762,37.598
1688994418.420,25.391,6.348,31.250,30.762,49.805
1688994418.424,20.020,9.766,35.156,26.367,101.562
1688994418.427,28.809,12.695,34.668,32.715,58.594
1688994418.431,33.203,12.207,32.227,37.598,12.695
1688994418.435,31.250,8.789,30.762,33.691,15.137
1688994418.439,34.668,11.230,29.785,22.949,5.371
1688994418.443,36.133,15.625,30.273,16.113,20.508
1688994418.447,25.391,13.184,27.832,12.207,69.824
1688994418.451,24.414,8.789,27.344,8.789,77.637
1688994418.455,32.227,9.766,29.785,15.137,65.918
1688994418.459,32.227,12.695,32.715,14.648,63.965
1688994418.463,30.762,11.230,32.227,13.184,22.461
1688994418.466,28.320,10.742,39.062,17.578,61.035
1688994418.470,28.320,15.625,46.875,15.137,27.344
1688994418.474,30.762,19.043,45.898,16.113,15.137
1688994418.478,34.668,18.066,44.434,25.879,83.008
1688994418.482,37.109,19.043,42.480,26.855,91.797
1688994418.486,34.180,21.973,38.086,28.809,95.703
1688994418.490,19.531,20.020,36.621,16.602,95.703
1688994418.494,17.090,18.555,32.227,14.648,56.641
1688994418.498,18.555,20.996,28.809,28.809,20.508
1688994418.502,0.488,22.461,26.855,18.066,-21.484
1688994418.506,3.906,20.996,23.438,14.648,-12.207
1688994418.509,4.395,17.578,18.066,19.531,11.719
1688994418.513,-5.859,15.625,14.160,15.625,23.438
1688994418.517,1.953,17.578,18.555,15.625,70.312
1688994418.521,0.488,18.066,19.043,14.160,71.777
1688994418.525,-1.465,17.090,15.625,4.883,51.270
1688994418.529,0.488,21.484,18.066,-0.977,4.395
1688994418.533,3.418,27.832,16.113,8.789,13.184
1688994418.537,8.301,23.438,16.602,10.742,44.922
1688994418.541,7.812,17.578,17.578,-4.395,-23.926
1688994418.545,6.836,23.438,12.207,2.441,-54.688
1688994418.549,15.625,28.320,15.137,-1.465,-50.293
1688994418.552,22.461,29.297,22.461,-6.348,-46.875
1688994418.556,28.809,31.738,24.902,7.324,-23.926
1688994418.560,35.156,34.180,24.414,9.766,12.207
1688994418.564,37.109,33.691,22.461,13.184,38.574
1688994418.568,37.109,28.320,18.066,15.625,8.301
1688994418.572,35.156,27.344,15.625,14.648,21.973
1688994418.576,29.785,33.203,15.625,26.367,43.945
1688994418.580,27.344,31.738,20.508,30.762,21.973
1688994418.584,20.996,27.344,23.438,23.438,50.781
1688994418.588,18.066,31.738,20.020,14.648,71.289
1688994418.591,18.066,38.574,13.672,16.602,24.902
1688994418.595,21.484,36.133,10.254,13.184,26.855
1688994418.599,20.508,36.133,11.719,9.766,46.387
1688994418.603,5.371,32.715,12.207,16.113,12.695
1688994418.607,-0.977,33.203,8.789,8.789,18.555
1688994418.611,-3.418,23.438,2.930,4.395,0.977
1688994418.615,-3.418,10.742,3.418,13.184,64.453
1688994418.619,-9.766,15.137,5.859,-3.418,53.711
1688994418.623,-12.207,17.578,12.695,-6.348,30.762
1688994418.627,-4.883,14.648,15.137,-0.488,69.824
1688994418.631,5.859,12.695,13.672,-3.418,50.781
1688994418.634,17.090,10.742,15.625,2.930,7.324
1688994418.638,23.926,11.719,10.254,11.719,-16.602
1688994418.642,29.785,17.090,4.395,13.184,-9.277
1688994418.646,32.227,17.090,5.371,14.160,23.438
1688994418.650,33.691,13.672,2.441,20.020,60.547
1688994418.654,39.062,9.277,1.953,26.855,72.266
1688994418.658,39.551,8.301,8.301,23.926,69.824
1688994418.662,37.109,7.812,10.254,23.926,16.602
1688994418.666,30.762,8.789,9.277,26.367,11.719
1688994418.670,29.297,10.742,6.836,26.367,8.301
1688994418.674,29.785,9.277,10.742,30.762,-4.883
1688994418.677,20.996,4.395,13.184,30.273,30.273
1688994418.681,25.391,-1.953,7.812,25.391,45.898
1688994418.685,21.484,-1.953,5.371,21.484,-12.695
1688994418.689,13.184,-4.395,4.395,16.602,9.277
1688994418.693,15.625,-14.160,1.953,15.625,35.156
1688994418.697,14.648,-8.301,-0.488,17.578,-3.906
1688994418.701,16.602,-3.906,-0.488,17.578,77.637
1688994418.705,14.160,-8.301,3.906,21.973,64.453
1688994418.709,24.902,-8.301,11.719,42.969,-23.926
1688994418.713,39.551,8.301,16.602,61.523,66.406
1688994418.716,14.160,25.391,8.789,29.785,81.055
1688994418.720,-3.906,20.996,3.906,1.953,6.836
1688994418.724,8.301,17.090,0.977,7.812,65.430
1688994418.728,15.137,18.555,-0.488,8.789,86.914
1688994418.732,19.043,19.043,5.859,4.395,31.738
1688994418.736,22.949,17.090,5.371,8.301,30.762
1688994418.740,22.461,17.578,5.859,4.883,23.438
1688994418.744,24.414,15.625,17.578,8.789,-22.949
1688994418.748,34.668,9.766,22.949,17.578,-7.324
1688994418.752,37.598,9.766,22.461,16.113,-9.277
1688994418.756,34.668,10.742,18.555,18.066,14.160
1688994418.759,41.504,12.695,14.160,32.715,58.594
1688994418.763,41.504,9.277,12.695,29.297,41.504
1688994418.767,39.062,2.441,11.719,17.090,14.648
1688994418.771,40.039,-12.207,9.766,18.066,63.477
1688994418.775,41.016,-14.648,9.277,16.113,71.289
1688994418.779,33.691,11.230,8.301,8.301,26.855
1688994418.783,22.461,24.414,10.742,4.883,53.223
1688994418.787,22.461,24.414,3.418,10.742,39.551
1688994418.791,31.250,24.902,2.930,16.602,39.551
1688994418.795,35.156,23.438,12.695,18.555,86.914
1688994418.798,38.574,18.066,13.184,28.320,9.277
1688994418.802,36.133,18.555,11.719,27.832,-19.043
1688994418.806,39.062,21.973,15.625,15.625,-9.766
1688994418.810,40.039,17.578,25.879,20.020,-13.184
1688994418.814,42.480,18.066,25.879,24.414,23.926
1688994418.818,42.480,13.672,22.461,23.438,102.539
1688994418.822,29.297,2.930,29.297,31.250,109.863
1688994418.826,19.531,0.488,31.738,21.973,25.879
1688994418.830,19.043,5.371,34.180,13.184,64.941
1688994418.834,27.832,8.789,31.250,20.020,70.312
1688994418.838,25.879,6.836,23.438,23.438,5.859
1688994418.841,23.438,7.812,21.973,24.414,25.879
1688994418.845,29.297,0.488,22.461,25.879,29.297
1688994418.849,31.738,0.488,24.414,28.809,-1.953
1688994418.853,27.832,11.230,21.973,25.879,6.836
1688994418.857,23.926,13.672,24.902,36.621,8.301
1688994418.861,44.922,11.719,28.809,45.410,-49.316
1688994418.865,37.598,17.090,26.855,20.996,-16.602
1688994418.869,3.418,27.832,19.043,-10.254,20.508
1688994418.873,7.324,29.785,17.578,-0.488,34.180
1688994418.877,22.461,28.320,23.926,17.578,41.016
1688994418.881,15.625,27.832,22.949,14.648,2.930
1688994418.884,14.160,29.297,27.344,13.672,-8.301
1688994418.888,25.879,21.973,33.203,20.996,10.742
1688994418.892,26.367,20.996,33.203,20.508,36.133
1688994418.896,25.391,39.062,31.738,26.367,60.547
1688994418.900,34.180,43.945,28.320,35.645,64.941
1688994418.904,32.715,32.715,29.785,28.320,81.543
1688994418.908,28.809,26.367,33.203,19.043,33.691
1688994418.912,26.855,32.227,37.598,21.484,31.738
1688994418.916,30.273,36.621,34.180,25.879,73.730
1688994418.920,30.762,39.062,28.809,21.973,60.547
1688994418.923,29.785,36.133,25.879,13.184,39.062
1688994418.927,25.391,36.133,29.297,20.996,41.992
1688994418.931,23.926,32.227,36.621,21.973,44.922
1688994418.935,29.785,20.020,38.086,21.484,23.438
1688994418.939,33.691,18.555,38.574,32.715,-25.391
1688994418.943,30.762,16.113,34.180,33.203,-21.973
1688994418.947,26.367,8.301,32.715,21.973,68.848
1688994418.951,36.133,11.230,30.762,11.230,82.031
1688994418.955,38.574,19.043,25.391,17.578,48.828
1688994418.959,36.133,21.973,20.996,20.996,32.715
1688994418.963,38.574,27.832,20.508,22.949,-28.320
1688994418.966,35.645,25.879,16.113,22.949,-12.207
1688994418.970,29.297,11.230,10.742,15.137,64.453
1688994418.974,30.762,9.277,14.160,20.020,60.059
1688994418.978,40.039,28.320,15.625,23.926,58.105
1688994418.982,33.691,32.715,17.090,23.926,33.203
1688994418.986,28.320,25.879,21.973,22.949,-7.324
1688994418.990,22.461,21.973,25.391,17.090,43.945
1688994418.994,22.949,22.949,25.391,19.043,38.086
1688994418.998,31.738,24.902,23.926,22.949,-2.930
1688994419.002,22.949,21.973,25.879,24.902,16.113
1688994419.006,13.184,20.020,26.855,22.461,23.438
1688994419.009,19.043,21.484,33.691,19.531,43.457
1688994419.013,23.926,16.113,38.574,27.344,111.816
1688994419.017,33.203,10.254,45.410,36.133,103.027
1688994419.021,41.504,15.625,52.734,38.086,11.230
1688994419.025,36.133,20.020,51.270,32.715,-14.160
1688994419.029,36.621,19.531,44.922,32.227,30.273
1688994419.033,37.109,17.090,45.410,40.039,23.926
1688994419.037,37.109,14.160,51.758,38.086,-4.395
1688994419.041,29.297,14.160,49.805,37.109,20.508
1688994419.045,25.879,17.090,50.293,32.227,12.695
1688994419.048,28.320,12.207,52.734,21.484,-11.719
1688994419.052,30.273,10.254,48.340,28.809,3.906
1688994419.056,33.203,17.090,41.016,35.645,37.109
1688994419.060,31.250,10.254,30.273,30.273,48.828
1688994419.064,33.203,11.230,21.484,26.367,74.707
1688994419.068,37.109,14.648,21.484,21.973,65.918
1688994419.072,39.551,10.254,19.531,26.367,41.504
1688994419.076,39.062,9.766,16.113,23.926,-7.324
1688994419.080,39.062,10.742,18.555,18.066,-13.184
1688994419.084,41.504,10.742,20.996,23.926,33.691
1688994419.088,39.062,0.977,22.949,22.949,10.742
1688994419.091,41.504,0.488,26.855,31.250,-66.406
1688994419.095,38.574,17.578,24.902,39.062,-41.504
1688994419.099,31.250,25.879,25.879,31.250,64.453
1688994419.103,33.691,22.461,30.273,21.484,83.496
1688994419.107,29.297,15.625,35.645,23.438,92.773
1688994419.111,42.969,15.137,42.480,39.062,104.492
1688994419.115,50.781,9.277,45.410,45.410,40.039
1688994419.119,38.086,-10.254,39.551,38.574,23.926
1688994419.123,42.480,-18.066,41.016,49.805,64.941
1688994419.127,42.969,2.441,46.387,46.387,61.035
1688994419.131,37.598,19.043,46.387,41.504,-2.930
1688994419.134,38.574,-11.719,44.922,42.480,-30.273
1688994419.138,39.551,-40.527,37.109,44.922,44.434
1688994419.142,44.434,-35.645,30.762,53.223,85.449
1688994419.146,59.570,-42.480,43.457,54.688,33.203
1688994419.150,86.914,-7.324,76.660,83.984,21.484
1688994419.154,91.797,38.574,56.641,95.215,57.129
1688994419.158,61.035,73.242,21.484,56.641,24.414
1688994419.162,13.184,57.617,-0.977,-3.906,15.137
1688994419.166,-3.418,45.898,-10.254,-18.066,116.699
1688994419.170,16.602,60.547,32.715,6.836,100.098
1688994419.173,22.461,20.996,34.180,18.555,32.715
1688994419.177,24.902,-5.371,18.555,17.578,7.812
1688994419.181,18.555,29.785,16.113,12.695,15.625
1688994419.185,15.137,62.500,26.367,8.301,-2.441
1688994419.189,62.500,81.055,43.945,51.270,50.781
1688994419.193,106.445,81.543,51.270,97.168,53.711
1688994419.197,126.465,58.594,62.988,124.023,24.902
1688994419.201,162.109,84.473,92.285,167.480,80.566
1688994419.205,64.453,116.699,52.246,77.637,72.266
1688994419.209,3.418,141.602,13.184,13.672,49.316
1688994419.213,39.062,134.277,39.551,49.805,28.320
1688994419.216,19.531,111.816,31.738,31.250,-7.812
1688994419.220,12.207,121.094,6.348,15.625,-23.438
1688994419.224,25.879,107.910,-7.324,21.484,-26.855
1688994419.228,15.625,91.797,17.090,19.531,34.180
1688994419.232,-17.578,94.238,41.016,8.301,11.719
1688994419.236,-3.906,101.074,36.133,13.672,-30.273
1688994419.240,42.480,121.582,55.176,51.270,-1.953
1688994419.244,58.105,135.254,74.219,76.660,10.742
1688994419.248,35.156,121.094,57.129,45.410,-13.672
1688994419.252,14.648,82.031,32.227,13.184,-15.137
1688994419.255,22.461,69.824,41.504,34.668,-3.418
1688994419.259,31.250,117.188,62.012,53.223,-10.254
1688994419.263,23.926,124.512,59.570,35.645,-15.625
1688994419.267,-7.324,111.816,47.363,3.906,-8.301
1688994419.271,-46.875,76.660,15.625,-21.973,3.906
1688994419.275,-39.062,50.781,19.531,-1.953,-9.766
1688994419.279,-20.020,70.312,36.621,15.137,-14.648
1688994419.283,-12.207,87.402,37.109,11.719,-8.301
1688994419.287,4.395,95.215,48.340,23.926,4.395
1688994419.291,8.789,93.262,62.012,30.762,15.137
1688994419.295,9.277,83.496,62.012,31.738,38.086
1688994419.298,21.973,72.266,61.523,36.133,83.496
1688994419.302,14.160,65.430,71.289,40.039,36.621
1688994419.306,-1.465,59.082,76.172,45.898,10.254
1688994419.310,-1.953,55.664,62.500,42.969,32.227
1688994419.314,0.488,60.059,54.199,44.434,20.020
1688994419.318,-1.953,48.340,57.129,48.340,36.133
1688994419.322,-12.695,33.203,45.898,38.574,30.273
1688994419.326,-11.719,39.062,34.668,27.832,11.719
1688994419.330,-4.395,41.016,25.879,29.785,10.254
1688994419.334,-6.836,27.832,20.996,33.691,62.012
1688994419.338,-9.277,23.926,21.973,37.109,67.871
1688994419.341,0.977,39.062,23.438,29.297,33.691
1688994419.345,7.324,25.879,20.996,18.555,-19.043
1688994419.349,10.742,22.461,20.508,28.320,-27.344
1688994419.353,12.207,43.945,26.855,35.156,27.832
1688994419.357,8.789,38.086,24.902,35.156,-8.301
1688994419.361,13.184,35.645,15.625,29.297,41.016
1688994419.365,19.531,38.574,18.066,19.531,100.098
1688994419.369,9.766,24.414,26.855,32.227,59.570
1688994419.373,3.906,25.879,30.273,40.527,74.707
1688994419.377,13.672,31.250,33.691,29.785,53.711
1688994419.380,11.230,34.668,33.203,20.996,-5.859
1688994419.384,1.465,30.762,36.133,13.184,51.758
1688994419.388,3.418,29.297,38.574,23.438,83.984
1688994419.392,10.254,41.504,38.086,19.531,50.781
1688994419.396,14.648,46.875,39.551,15.137,-1.465
1688994419.400,9.766,55.664,39.551,10.254,-35.645
1688994419.404,10.254,53.711,36.133,-2.930,-58.594
1688994419.408,10.742,43.945,37.109,1.465,-15.625
1688994419.412,-5.371,41.992,42.480,0.977,46.875
1688994419.416,-6.348,42.480,41.992,8.301,44.922
1688994419.420,6.348,40.039,39.551,8.789,1.465
1688994419.423,10.254,50.293,44.434,5.859,16.602
1688994419.427,12.207,73.730,43.945,15.625,41.016
1688994419.431,14.648,82.031,36.621,16.113,34.668
1688994419.435,18.555,69.824,30.273,14.648,28.320
1688994419.439,19.043,60.059,20.508,5.371,-0.488
1688994419.443,11.230,54.688,18.066,-5.371,8.301
1688994419.447,11.719,45.410,18.555,8.301,3.418
1688994419.451,21.484,61.523,15.625,21.484,73.242
1688994419.455,28.809,82.031,15.137,27.344,68.848
1688994419.459,40.039,85.449,13.184,29.297,-8.789
1688994419.463,34.668,75.684,8.301,11.230,-6.836
1688994419.466,41.992,73.730,13.184,15.625,40.527
1688994419.470,50.293,77.148,22.461,28.320,68.848
1688994419.474,34.668,74.219,21.484,30.273,26.855
1688994419.478,30.762,70.801,21.973,31.738,12.207
1688994419.482,35.645,69.824,21.484,28.320,50.293
1688994419.486,39.062,70.801,20.508,34.668,36.621
1688994419.490,37.109,62.500,25.879,43.457,24.414
1688994419.494,34.668,52.734,27.832,42.969,80.078
1688994419.498,34.668,57.129,22.461,37.598,97.168
1688994419.502,29.785,54.199,24.414,28.809,49.805
1688994419.505,30.273,50.781,34.180,25.879,34.668
1688994419.509,31.738,49.316,38.574,33.203,-22.461
1688994419.513,28.809,44.922,35.156,34.668,11.719
1688994419.517,33.691,43.457,30.762,31.738,66.895
1688994419.521,41.016,35.156,33.203,45.898,21.484
1688994419.525,53.223,35.156,40.039,54.688,26.367
1688994419.529,40.039,34.668,37.598,37.109,46.387
1688994419.533,29.297,29.785,25.879,23.926,7.812
1688994419.537,39.551,37.598,18.555,24.902,36.133
1688994419.541,44.434,45.410,21.973,26.855,49.805
1688994419.545,49.316,43.457,31.250,31.250,-29.785
1688994419.548,45.410,35.156,34.668,27.344,-10.254
1688994419.552,43.945,25.879,29.297,26.855,48.340
1688994419.556,43.457,23.438,33.203,36.133,30.762
1688994419.560,41.992,23.438,38.086,33.691,11.230
1688994419.564,39.551,20.508,33.691,37.109,4.883
1688994419.568,39.551,21.973,29.785,36.133,-6.836
1688994419.572,41.992,20.996,35.156,37.598,62.500
1688994419.576,44.434,17.090,42.480,51.758,100.098
1688994419.580,37.598,18.066,39.062,48.340,23.926
1688994419.584,35.156,19.531,36.133,33.691,27.832
1688994419.587,43.945,19.043,33.691,38.086,63.965
1688994419.591,42.480,15.625,33.203,36.621,36.133
1688994419.595,32.227,11.719,35.645,42.969,35.156
1688994419.599,32.227,-0.488,36.621,48.828,13.184
1688994419.603,39.551,0.977,35.156,38.574,1.465
1688994419.607,40.039,30.762,36.133,35.156,16.113
1688994419.611,31.738,47.363,35.156,30.762,-23.926
1688994419.615,34.180,43.945,35.156,28.320,-21.484
1688994419.619,42.969,37.109,39.062,25.879,33.203
1688994419.623,40.039,31.738,38.086,22.949,3.418
