timestamps,TP9,AF7,AF8,TP10,Right AUX
1687169485.972,202.148,69.824,37.109,38.086,126.465
1687169485.976,208.008,67.871,37.109,32.227,30.273
1687169485.980,218.750,65.430,37.109,22.461,-8.301
1687169485.984,223.145,68.359,37.109,19.531,-23.926
1687169485.988,209.473,69.824,36.133,30.762,-29.785
1687169485.992,203.125,67.871,35.645,37.109,3.906
1687169485.995,213.379,68.359,39.062,36.621,44.434
1687169485.999,222.168,72.266,41.016,36.133,41.016
1687169486.003,216.797,69.824,40.527,29.297,35.645
1687169486.007,209.473,69.824,41.504,23.926,49.316
1687169486.011,215.332,72.266,38.086,28.320,-8.789
1687169486.015,211.426,72.266,35.156,32.227,-22.461
1687169486.019,201.660,71.289,35.645,22.461,2.930
1687169486.023,202.148,66.406,37.109,21.973,4.395
1687169486.027,192.871,67.383,37.598,29.785,29.785
1687169486.031,185.547,70.312,36.621,25.391,52.246
1687169486.034,203.613,68.359,33.203,-1.465,42.480
1687169486.038,213.867,67.383,32.227,-5.371,64.941
1687169486.042,208.496,66.895,36.133,18.555,12.695
1687169486.046,204.102,68.359,38.086,25.391,-19.043
1687169486.050,202.637,67.871,36.133,28.809,22.949
1687169486.054,191.895,68.848,35.156,28.320,46.387
1687169486.058,188.477,65.430,35.156,19.531,40.039
1687169486.062,178.223,61.523,35.156,15.137,21.973
1687169486.066,167.480,62.988,33.691,13.672,35.645
1687169486.070,185.547,62.988,32.715,12.695,2.930
1687169486.074,190.430,64.453,32.715,14.648,5.859
1687169486.077,186.523,63.965,34.180,15.625,33.203
1687169486.081,189.453,62.012,34.668,7.324,-0.488
1687169486.085,188.477,62.012,34.668,12.695,11.719
1687169486.089,191.406,66.895,36.621,27.344,30.762
1687169486.093,186.523,65.918,37.598,15.137,31.738
1687169486.097,170.898,61.035,35.645,8.789,16.602
1687169486.101,187.012,61.523,34.668,-9.277,33.203
1687169486.105,215.332,62.988,35.645,-36.621,47.363
1687169486.109,206.543,65.918,35.156,-53.711,-14.648
1687169486.113,197.754,65.918,36.621,-79.102,64.453
1687169486.117,196.777,67.871,36.621,-100.098,85.449
1687169486.120,194.336,69.336,37.109,-86.914,76.172
1687169486.124,188.965,69.824,41.504,-71.289,80.078
1687169486.128,190.918,67.383,41.992,-70.312,42.969
1687169486.132,197.754,59.082,47.363,-60.547,57.129
1687169486.136,212.402,63.477,49.805,-62.500,11.719
1687169486.140,200.195,75.684,37.109,-88.379,-12.207
1687169486.144,183.594,76.172,29.297,-96.680,19.043
1687169486.148,187.988,74.707,30.762,-100.586,39.062
1687169486.152,177.734,73.242,29.785,-105.957,65.430
1687169486.156,169.434,74.707,26.855,-86.426,35.645
1687169486.159,166.992,78.125,21.973,-86.426,22.461
1687169486.163,171.387,79.102,19.043,-83.008,30.762
1687169486.167,165.527,84.961,19.043,-70.801,47.363
1687169486.171,157.227,89.844,16.113,-70.801,63.965
1687169486.175,161.621,86.914,16.113,-66.406,-22.461
1687169486.179,165.039,81.055,16.113,-56.152,10.254
1687169486.183,166.504,80.566,14.160,-51.758,41.992
1687169486.187,169.922,81.055,12.207,-42.480,11.719
1687169486.191,168.945,78.613,15.137,-34.180,70.801
1687169486.195,176.270,80.078,18.066,-39.062,131.836
1687169486.199,170.898,80.566,18.066,-20.996,69.824
1687169486.202,157.227,80.566,22.949,-5.371,30.273
1687169486.206,163.086,81.543,25.879,-14.160,50.781
1687169486.210,188.965,80.078,23.438,-8.789,64.453
1687169486.214,184.082,74.707,26.855,-11.230,79.102
1687169486.218,176.270,72.266,28.809,-14.160,23.438
1687169486.222,184.082,74.219,27.344,3.418,42.480
1687169486.226,182.129,77.148,28.320,9.766,91.309
1687169486.230,177.246,78.125,26.367,1.465,75.684
1687169486.234,170.898,77.148,27.832,-2.930,86.426
1687169486.238,161.621,79.102,30.273,-1.953,99.609
1687169486.241,170.898,80.078,25.879,2.441,85.938
1687169486.245,167.969,74.219,25.879,8.301,68.848
1687169486.249,170.410,73.730,27.832,9.277,17.578
1687169486.253,185.059,77.148,27.832,-4.883,38.086
1687169486.257,176.270,75.195,27.344,-9.277,55.176
1687169486.261,171.875,76.172,26.855,-1.953,52.734
1687169486.265,167.480,77.637,25.879,-8.301,62.012
1687169486.269,157.715,75.684,24.414,-20.020,50.293
1687169486.273,164.062,73.242,23.926,-30.762,9.277
1687169486.277,163.086,72.266,25.879,-32.715,-16.113
1687169486.281,135.742,74.707,26.367,-24.902,35.156
1687169486.284,140.137,76.172,27.344,-12.695,77.637
1687169486.288,172.363,73.730,30.762,-2.930,55.664
1687169486.292,159.180,70.312,29.297,-17.578,40.039
1687169486.296,150.391,66.406,26.367,-23.926,15.137
1687169486.300,137.207,64.453,27.832,-31.738,-25.879
1687169486.304,139.648,67.383,28.320,-35.645,0.000
1687169486.308,141.602,69.824,28.809,-19.531,32.227
1687169486.312,132.324,68.848,27.832,-37.109,19.043
1687169486.316,125.488,66.895,28.320,-32.715,42.480
1687169486.320,140.137,68.359,28.809,-11.719,48.828
1687169486.324,168.945,69.336,29.297,-10.254,-22.949
1687169486.327,157.715,68.359,28.809,-17.578,-14.160
1687169486.331,146.484,69.336,29.297,-30.273,16.602
1687169486.335,126.953,69.336,30.762,-27.832,-11.230
1687169486.339,127.930,65.430,31.250,-10.254,-25.391
1687169486.343,130.859,63.477,30.762,-3.418,13.672
1687169486.347,130.371,61.523,32.715,-3.906,25.391
1687169486.351,140.137,62.500,30.273,7.812,-1.465
1687169486.355,143.555,64.453,30.762,2.930,-5.859
1687169486.359,153.320,62.500,34.180,1.465,41.992
1687169486.363,135.742,64.941,31.738,3.906,55.176
1687169486.366,127.441,64.941,33.203,-3.906,10.742
1687169486.370,132.812,62.012,31.250,-15.137,32.715
1687169486.374,125.977,63.965,30.762,-31.738,36.621
1687169486.378,109.863,63.965,34.668,-54.199,10.742
1687169486.382,100.098,60.547,29.297,-38.086,0.488
1687169486.386,106.445,60.059,29.297,-11.719,36.133
1687169486.390,121.582,62.500,30.273,-11.230,67.383
1687169486.394,125.488,61.523,29.297,-14.160,54.688
1687169486.398,117.676,60.059,34.180,-12.695,20.996
1687169486.402,112.793,61.523,32.227,-6.836,-7.812
1687169486.406,123.535,60.547,31.738,-12.695,2.441
1687169486.409,120.117,58.105,33.691,-13.672,13.184
1687169486.413,111.816,60.059,33.691,13.184,-26.367
1687169486.417,104.492,60.059,34.668,20.996,-26.855
1687169486.421,101.074,58.594,36.133,16.113,26.855
1687169486.425,106.934,59.570,38.574,37.598,-18.066
1687169486.429,104.980,62.500,35.156,58.594,-20.020
1687169486.433,82.520,64.453,31.738,54.688,24.902
1687169486.437,91.797,62.500,32.227,35.156,21.484
1687169486.441,125.488,62.500,35.156,21.973,32.715
1687169486.445,118.652,61.035,32.715,19.043,56.641
1687169486.449,115.234,57.617,32.227,26.367,29.785
1687169486.452,119.141,60.547,35.156,9.766,3.906
1687169486.456,106.934,63.965,34.180,-2.441,33.691
1687169486.460,123.047,62.500,36.621,2.441,48.340
1687169486.464,142.578,61.523,39.062,-3.906,45.898
1687169486.468,123.535,60.547,38.086,-7.812,51.758
1687169486.472,109.375,58.105,40.039,4.883,-3.418
1687169486.476,97.168,56.152,41.504,4.883,28.809
1687169486.480,83.984,57.129,39.062,-10.742,87.891
1687169486.484,81.055,63.477,34.668,-19.043,83.496
1687169486.488,76.172,66.895,36.133,-29.297,13.672
1687169486.491,47.363,60.547,41.992,-36.133,-4.395
1687169486.495,52.734,57.617,41.504,-22.461,52.734
1687169486.499,89.844,61.035,42.969,-9.766,104.980
1687169486.503,96.680,63.965,44.922,-12.695,85.938
1687169486.507,100.586,61.523,45.410,-2.441,11.230
1687169486.511,97.656,60.547,41.504,9.766,17.090
1687169486.515,87.402,62.988,39.062,7.812,32.715
1687169486.519,84.961,63.965,42.480,17.578,37.598
1687169486.523,86.426,57.617,40.527,20.996,16.113
1687169486.527,95.215,55.664,41.504,20.996,36.621
1687169486.531,101.562,62.012,43.945,42.480,20.996
1687169486.534,89.355,62.988,41.992,54.688,-3.418
1687169486.538,82.520,63.477,40.527,63.477,52.246
1687169486.542,101.074,62.988,44.434,78.613,63.965
1687169486.546,109.375,65.918,44.434,88.379,51.758
1687169486.550,100.586,67.383,40.039,93.750,-23.438
1687169486.554,101.562,65.430,44.922,102.051,0.488
1687169486.558,84.473,63.477,46.875,114.258,87.402
1687169486.562,63.965,59.570,44.922,125.977,76.660
1687169486.566,82.031,67.383,48.828,141.602,14.160
1687169486.570,89.355,70.801,53.711,150.879,11.719
1687169486.573,58.105,69.824,62.012,141.113,68.359
1687169486.577,42.480,69.336,70.801,129.395,48.828
1687169486.581,72.754,65.918,71.777,107.422,-5.859
1687169486.585,56.152,65.430,71.777,80.566,-10.742
1687169486.589,28.320,69.824,76.172,80.078,24.902
1687169486.593,26.367,74.219,95.703,81.055,26.855
1687169486.597,17.578,67.871,109.863,57.129,-25.391
1687169486.601,-10.254,61.035,115.234,15.625,-22.949
1687169486.605,-35.645,56.641,127.441,5.371,16.113
1687169486.609,-39.551,59.082,133.789,5.859,-17.090
1687169486.613,-37.109,64.453,130.859,-4.883,25.391
1687169486.616,-59.570,66.895,129.883,-29.785,72.754
1687169486.620,-58.105,67.871,130.371,-35.645,6.348
1687169486.624,-34.180,72.754,127.441,-12.695,30.762
1687169486.628,-31.250,75.684,120.117,2.930,39.551
1687169486.632,-26.367,76.660,106.445,13.672,-10.742
1687169486.636,-6.348,76.660,93.750,10.254,42.480
1687169486.640,5.371,69.824,87.891,3.906,48.828
1687169486.644,15.625,70.801,77.148,19.043,66.895
1687169486.648,40.039,71.777,64.453,32.715,85.449
1687169486.652,41.992,66.895,57.129,32.715,12.207
1687169486.656,30.762,64.453,51.270,28.809,-2.441
1687169486.659,44.434,63.965,43.457,30.762,14.648
1687169486.663,76.172,61.035,36.621,41.992,9.766
1687169486.667,89.355,59.082,32.715,51.270,22.949
1687169486.671,99.609,62.988,26.855,50.781,88.867
1687169486.675,92.285,62.988,26.855,52.246,90.332
1687169486.679,89.355,61.035,23.926,50.293,-17.090
1687169486.683,99.121,61.523,14.648,35.645,28.320
1687169486.687,103.516,56.641,10.254,24.902,60.547
1687169486.691,101.562,60.059,9.766,22.949,31.738
1687169486.695,104.980,60.547,8.301,17.090,62.012
1687169486.698,121.094,57.617,6.836,7.324,46.875
1687169486.702,141.602,59.570,8.301,4.883,38.574
1687169486.706,134.766,58.105,8.301,0.488,42.969
1687169486.710,124.512,61.035,2.441,-2.930,69.824
1687169486.714,129.883,60.547,1.953,-0.977,62.988
1687169486.718,144.531,58.594,4.883,4.395,49.805
1687169486.722,146.973,60.547,6.348,12.695,41.992
1687169486.726,137.207,59.082,5.859,9.277,-8.301
1687169486.730,141.113,58.594,3.906,14.160,8.301
1687169486.734,130.859,58.594,1.465,0.977,16.602
1687169486.738,136.230,55.176,5.371,0.488,40.527
1687169486.741,152.344,57.129,6.348,19.043,68.359
1687169486.745,148.926,58.105,3.418,26.367,-1.465
1687169486.749,153.320,57.129,5.859,27.832,43.945
1687169486.753,142.578,57.617,6.836,27.344,48.340
1687169486.757,143.555,59.082,6.348,30.762,22.949
1687169486.761,148.926,57.617,3.418,25.391,92.773
1687169486.765,125.000,53.223,4.395,18.555,73.730
1687169486.769,122.559,54.688,6.348,18.066,39.062
1687169486.773,140.137,57.129,3.906,15.625,37.598
1687169486.777,138.672,60.059,5.859,17.090,12.695
1687169486.781,135.254,56.152,7.812,21.484,26.855
1687169486.784,139.160,56.641,4.883,17.578,44.434
1687169486.788,139.160,59.570,6.348,14.648,15.137
1687169486.792,120.605,61.523,10.742,-1.953,36.621
1687169486.796,116.699,63.477,11.230,-6.348,35.156
1687169486.800,122.070,60.547,12.207,8.301,-34.668
1687169486.804,124.023,61.523,11.230,-1.953,-34.668
1687169486.808,124.512,64.453,12.695,-15.137,-29.785
1687169486.812,124.023,58.594,17.578,-18.555,28.809
1687169486.816,95.215,58.594,20.508,-31.738,52.246
1687169486.820,100.098,61.035,18.066,-19.531,-6.348
1687169486.823,120.117,57.129,13.184,0.977,50.781
1687169486.827,95.703,55.664,12.207,16.113,88.867
1687169486.831,94.727,55.176,15.137,20.020,46.387
1687169486.835,104.004,56.152,16.602,22.461,29.785
1687169486.839,91.309,57.129,18.066,28.320,-8.789
1687169486.843,90.820,54.688,22.949,17.578,62.988
1687169486.847,76.660,59.082,22.949,3.418,63.477
1687169486.851,76.660,62.500,22.949,-23.438,27.832
1687169486.855,106.445,67.383,27.832,-36.621,79.590
1687169486.859,106.934,70.801,29.297,-48.340,43.945
1687169486.863,114.746,70.801,30.273,-52.246,24.414
1687169486.866,112.305,74.219,35.156,-48.828,82.520
1687169486.870,104.492,75.684,39.062,-58.105,79.102
1687169486.874,87.891,75.684,35.645,-67.871,12.207
1687169486.878,80.078,77.148,35.645,-77.148,23.926
1687169486.882,96.191,76.660,42.969,-86.426,20.508
1687169486.886,101.562,74.707,44.434,-96.191,16.602
1687169486.890,89.844,74.707,41.016,-93.262,43.457
1687169486.894,84.473,76.172,41.016,-106.934,7.324
1687169486.898,83.008,75.195,41.504,-114.746,26.367
1687169486.902,78.125,70.801,36.133,-102.539,36.133
1687169486.905,84.961,70.801,34.180,-101.562,20.996
1687169486.909,97.168,72.266,34.180,-100.098,53.711
1687169486.913,90.820,72.266,36.133,-102.539,62.988
1687169486.917,80.566,72.266,36.133,-102.539,46.387
1687169486.921,80.078,72.754,35.156,-101.562,59.082
1687169486.925,82.031,74.707,38.574,-94.727,47.852
1687169486.929,84.473,75.195,32.227,-94.238,-7.324
1687169486.933,91.309,70.312,28.320,-91.309,32.715
1687169486.937,89.355,67.383,33.691,-81.543,58.594
1687169486.941,87.891,68.848,35.156,-87.402,-21.484
1687169486.945,85.449,71.289,33.203,-82.031,-15.137
1687169486.948,82.520,70.312,33.691,-62.012,77.148
1687169486.952,62.988,69.824,37.109,-48.340,21.973
1687169486.956,74.219,73.730,35.645,-41.016,-10.254
1687169486.960,26.367,74.219,34.180,-42.969,21.484
1687169486.964,-51.270,72.266,40.527,-34.180,20.996
1687169486.968,-74.707,71.289,39.551,-33.691,53.223
1687169486.972,-91.309,71.777,39.062,-45.898,63.477
1687169486.976,-91.797,70.312,38.086,-49.316,52.246
1687169486.980,-92.773,69.336,35.156,-37.109,4.395
1687169486.984,-95.703,68.359,39.062,-15.137,34.180
1687169486.988,-80.566,67.871,38.574,11.230,103.516
1687169486.991,-80.078,66.406,38.574,30.762,71.777
1687169486.995,-72.266,62.988,39.551,36.621,7.812
1687169486.999,-65.430,61.523,38.086,41.016,-17.578
1687169487.003,-77.148,60.059,37.598,30.762,30.273
1687169487.007,-80.566,60.547,33.691,14.648,69.824
1687169487.011,-74.707,62.012,32.227,21.973,7.812
1687169487.015,-66.895,63.477,36.133,21.484,4.395
1687169487.019,-57.129,64.453,34.668,10.742,5.859
1687169487.023,-30.762,61.035,33.203,10.254,43.457
1687169487.027,-17.090,62.988,32.715,22.461,80.078
1687169487.030,-16.113,67.383,35.645,30.762,34.180
1687169487.034,-26.367,66.895,31.250,26.855,55.176
1687169487.038,-22.949,63.477,27.344,20.996,73.242
1687169487.042,-34.668,60.547,33.691,-24.902,46.387
1687169487.046,-23.438,64.941,36.133,-59.570,46.387
1687169487.050,7.324,64.941,36.133,-70.801,59.570
1687169487.054,10.254,61.523,34.180,-92.285,43.945
1687169487.058,1.465,59.570,35.645,-91.797,17.090
1687169487.062,-6.836,56.152,39.062,-78.125,3.906
1687169487.066,3.418,58.105,37.109,-88.867,40.039
1687169487.070,5.859,57.129,33.691,-105.469,58.594
1687169487.073,8.301,56.152,36.133,-97.168,15.137
1687169487.077,16.113,57.617,42.969,-104.004,16.113
1687169487.081,12.207,57.129,41.016,-116.211,29.785
1687169487.085,1.465,59.570,38.086,-108.398,24.902
1687169487.089,2.930,62.988,41.016,-112.793,35.156
1687169487.093,31.250,61.035,42.969,-100.098,29.785
1687169487.097,38.574,59.082,41.016,-90.332,36.621
1687169487.101,32.715,62.988,38.574,-103.516,55.664
1687169487.105,31.250,64.941,35.156,-110.840,53.711
1687169487.109,22.949,62.988,33.203,-115.723,33.203
1687169487.113,25.879,59.570,35.156,-101.074,-18.066
1687169487.116,18.555,59.570,37.109,-86.426,-26.855
1687169487.120,18.066,59.082,37.109,-100.098,4.883
1687169487.124,37.109,59.082,36.133,-106.934,11.230
1687169487.128,25.391,55.664,38.574,-104.004,19.531
1687169487.132,15.625,58.594,37.598,-106.934,-0.488
1687169487.136,30.762,64.453,39.062,-109.863,0.000
1687169487.140,32.227,62.500,42.480,-102.051,-1.953
1687169487.144,26.367,59.570,39.062,-88.379,5.859
1687169487.148,16.113,62.012,38.574,-81.543,51.270
1687169487.152,24.902,62.500,40.039,-91.309,60.059
1687169487.155,39.062,61.035,42.480,-90.820,3.906
1687169487.159,34.180,62.500,44.434,-86.426,-11.230
1687169487.163,13.672,59.082,41.992,-95.215,11.719
1687169487.167,-5.371,59.082,39.062,-86.426,48.340
1687169487.171,-2.930,59.082,39.062,-74.707,117.676
1687169487.175,-3.906,47.852,40.039,-74.219,59.570
1687169487.179,3.906,50.293,35.645,-63.477,-40.527
1687169487.183,32.227,57.617,36.133,-62.012,2.441
1687169487.187,33.203,56.641,40.527,-73.730,32.227
1687169487.191,16.113,56.641,42.480,-71.289,-67.383
1687169487.195,19.043,55.176,45.410,-68.359,3.418
1687169487.198,39.551,54.199,43.457,-62.500,68.359
1687169487.202,29.785,53.223,41.504,-66.895,51.758
1687169487.206,24.902,36.133,42.969,-74.707,15.137
1687169487.210,40.527,21.973,42.480,-60.547,4.395
1687169487.214,35.156,25.391,38.574,-65.430,79.102
1687169487.218,24.902,23.438,36.621,-80.566,44.434
1687169487.222,27.832,20.996,38.574,-77.148,51.758
1687169487.226,44.434,27.344,37.598,-65.430,75.684
1687169487.230,44.434,30.273,34.668,-79.590,82.031
1687169487.234,34.180,29.297,37.109,-84.961,91.309
1687169487.237,52.734,29.785,36.133,-80.078,87.891
1687169487.241,46.875,31.738,32.715,-82.031,41.504
1687169487.245,41.504,35.645,34.668,-81.055,-0.488
1687169487.249,53.711,38.574,35.156,-82.520,-4.395
1687169487.253,52.246,40.039,33.691,-83.496,16.602
1687169487.257,42.969,38.574,33.203,-84.473,21.484
1687169487.261,41.992,37.598,35.156,-68.848,0.977
1687169487.265,49.316,37.598,34.668,-57.617,26.855
1687169487.269,49.316,41.016,35.156,-67.383,37.598
1687169487.273,36.621,43.945,34.180,-56.641,37.109
1687169487.277,28.809,39.062,35.156,-57.617,17.090
1687169487.280,47.852,39.062,38.086,-75.684,73.730
1687169487.284,58.105,44.922,38.086,-64.453,88.867
1687169487.288,44.922,45.410,41.504,-62.500,43.457
1687169487.292,38.574,46.875,38.574,-72.754,46.875
1687169487.296,49.316,48.828,35.156,-85.449,20.508
1687169487.300,50.781,47.363,34.180,-89.844,43.945
1687169487.304,52.246,51.270,33.691,-85.449,49.316
1687169487.308,41.504,53.223,36.133,-76.660,34.180
1687169487.312,38.086,55.176,34.668,-67.383,36.133
1687169487.316,57.617,56.152,30.273,-74.707,35.645
1687169487.319,58.105,56.641,32.227,-82.031,46.875
1687169487.323,35.156,61.035,32.715,-99.121,68.848
1687169487.327,40.039,59.082,33.203,-113.281,59.082
1687169487.331,60.059,59.570,34.180,-107.422,60.547
1687169487.335,57.617,59.570,36.133,-94.238,30.273
1687169487.339,44.434,55.664,34.180,-76.172,20.508
1687169487.343,43.945,56.152,33.691,-69.336,50.781
1687169487.347,51.758,59.082,37.109,-86.426,41.016
1687169487.351,49.316,61.035,38.086,-101.074,38.086
1687169487.355,45.898,60.547,40.039,-106.934,-20.996
1687169487.359,49.805,61.523,40.039,-116.211,-38.086
1687169487.362,18.066,62.988,40.527,-133.301,-22.461
1687169487.366,15.625,62.012,41.992,-154.785,-7.324
1687169487.370,56.641,58.105,41.504,-168.945,30.762
1687169487.374,44.922,59.082,41.016,-177.246,66.406
1687169487.378,39.551,63.477,40.527,-191.895,58.594
1687169487.382,41.992,59.082,37.598,-198.730,-4.395
1687169487.386,43.457,60.059,34.180,-187.988,26.855
1687169487.390,44.922,65.918,38.574,-187.012,45.410
1687169487.394,18.555,62.012,44.922,-190.918,30.762
1687169487.398,11.230,60.059,41.504,-187.012,16.113
1687169487.402,14.160,59.570,39.551,-174.805,14.160
1687169487.405,36.621,63.477,41.992,-164.062,49.805
1687169487.409,53.711,67.383,44.922,-145.508,45.898
1687169487.413,28.809,57.129,42.969,-148.438,75.684
1687169487.417,27.832,59.082,38.574,-137.695,71.777
1687169487.421,21.484,69.824,35.156,-97.168,54.199
1687169487.425,29.297,69.824,34.668,-85.449,28.320
1687169487.429,49.805,69.824,40.039,-91.309,-31.738
1687169487.433,43.945,69.336,42.969,-96.680,-20.020
1687169487.437,45.898,66.406,41.992,-100.098,47.852
1687169487.441,49.805,66.406,42.969,-106.445,66.895
1687169487.445,52.246,65.918,43.457,-114.258,12.695
1687169487.448,56.641,64.453,40.039,-126.953,-12.207
1687169487.452,55.176,64.453,39.551,-131.836,27.832
1687169487.456,57.129,67.383,36.621,-128.906,77.637
1687169487.460,69.336,66.406,32.227,-127.441,11.230
1687169487.464,71.777,67.383,33.691,-130.859,-4.883
1687169487.468,65.430,66.895,39.062,-121.582,27.832
1687169487.472,40.527,58.105,41.504,-108.398,25.391
1687169487.476,24.902,56.641,41.504,-104.980,1.953
1687169487.480,26.367,58.594,42.480,-109.375,11.719
1687169487.484,17.578,60.547,42.969,-127.441,25.879
1687169487.487,8.301,63.477,41.016,-131.836,24.902
1687169487.491,27.832,65.430,38.574,-128.418,8.789
1687169487.495,47.363,64.941,39.551,-119.629,-11.230
1687169487.499,49.316,62.012,45.410,-107.422,21.484
1687169487.503,34.180,60.547,44.922,-104.492,16.602
1687169487.507,28.809,61.035,42.969,-107.422,19.043
1687169487.511,39.062,59.570,43.457,-108.398,57.129
1687169487.515,37.109,57.129,42.969,-108.398,72.754
1687169487.519,33.203,56.641,40.527,-117.676,15.137
1687169487.523,38.574,60.547,40.039,-126.953,-0.977
1687169487.527,38.574,62.988,45.898,-115.234,36.133
1687169487.530,19.043,64.453,47.363,-121.094,60.547
1687169487.534,35.156,68.359,44.434,-130.371,77.637
1687169487.538,44.434,64.453,42.969,-111.816,55.664
1687169487.542,52.246,64.941,40.039,-106.934,36.621
1687169487.546,33.691,64.453,43.457,-108.887,25.391
1687169487.550,15.137,65.918,41.992,-106.445,32.715
1687169487.554,61.035,72.266,35.645,-103.027,46.387
1687169487.558,69.824,70.801,41.016,-92.285,51.758
1687169487.562,54.199,67.383,45.410,-84.961,30.273
1687169487.566,47.852,67.383,44.434,-87.891,3.906
1687169487.569,50.781,69.336,44.434,-84.961,-43.457
1687169487.573,50.781,67.383,43.945,-84.961,-11.719
1687169487.577,42.480,69.336,40.527,-87.402,52.246
1687169487.581,37.598,69.824,39.551,-86.426,40.039
1687169487.585,34.668,68.359,41.016,-86.914,33.691
1687169487.589,46.875,71.289,41.992,-92.773,15.625
1687169487.593,46.875,70.312,38.574,-94.238,-7.812
1687169487.597,54.688,66.895,39.062,-100.586,24.902
1687169487.601,63.965,67.871,41.016,-95.215,41.992
1687169487.605,49.316,68.359,38.574,-83.496,89.844
1687169487.609,45.410,65.430,38.086,-84.473,52.734
1687169487.612,36.621,64.453,37.109,-70.312,53.711
1687169487.616,22.461,63.965,37.598,-62.500,67.383
1687169487.620,35.645,62.988,39.062,-57.617,17.090
1687169487.624,36.133,64.941,38.574,-67.383,58.594
1687169487.628,37.598,66.895,40.527,-67.383,63.965
1687169487.632,36.621,65.918,43.457,-61.035,27.832
1687169487.636,18.066,66.406,41.504,-68.359,13.184
1687169487.640,41.016,67.871,36.621,-79.102,-31.250
1687169487.644,45.898,65.430,34.180,-72.754,19.531
1687169487.648,35.645,62.988,37.109,-65.430,20.508
1687169487.651,41.016,69.824,34.668,-94.727,-6.836
1687169487.655,40.039,70.312,31.738,-95.703,39.551
1687169487.659,43.457,66.406,33.203,-88.867,73.730
1687169487.663,43.945,67.383,31.738,-101.562,93.750
1687169487.667,37.598,69.824,32.227,-81.543,74.219
1687169487.671,45.410,75.195,39.551,-54.688,2.930
1687169487.675,30.762,72.266,41.016,-37.598,-15.137
1687169487.679,10.742,64.941,36.133,-31.738,14.648
1687169487.683,35.156,66.895,33.691,-36.621,-19.043
1687169487.687,36.621,72.754,35.645,-35.156,-29.297
1687169487.691,46.875,75.684,40.527,-36.133,28.809
1687169487.694,59.570,74.707,40.527,-40.039,14.160
1687169487.698,45.410,68.848,39.062,-30.273,-28.320
1687169487.702,40.527,68.848,39.551,-37.109,17.578
1687169487.706,35.156,66.895,37.598,-46.387,35.156
1687169487.710,32.227,64.453,37.598,-34.180,31.250
1687169487.714,22.949,62.500,43.945,-22.461,45.898
1687169487.718,17.578,58.594,46.387,-24.902,25.391
1687169487.722,19.531,60.059,39.551,-47.363,-15.625
1687169487.726,22.461,56.152,42.969,-45.410,30.762
1687169487.730,14.648,57.617,48.340,-39.062,99.609
1687169487.734,17.578,56.641,40.039,-52.734,77.148
1687169487.737,26.367,57.129,40.039,-47.852,82.031
1687169487.741,16.113,60.547,43.945,-45.898,26.855
1687169487.745,18.066,56.641,42.969,-44.922,3.418
1687169487.749,23.926,57.617,40.527,-40.039,104.492
1687169487.753,28.320,63.477,39.551,-56.152,54.688
1687169487.757,6.836,59.570,45.898,-52.734,6.836
1687169487.761,17.090,59.082,45.898,-40.039,30.273
1687169487.765,24.414,61.523,38.574,-49.805,22.461
1687169487.769,5.371,56.152,38.574,-42.969,12.695
1687169487.773,19.043,57.129,36.621,-34.668,32.715
1687169487.777,41.504,60.547,35.156,-21.484,14.648
1687169487.780,35.156,61.035,37.109,-16.113,12.207
1687169487.784,9.277,61.523,33.203,-35.645,38.086
1687169487.788,-1.953,60.547,29.785,-36.133,80.566
1687169487.792,16.602,65.430,36.133,-13.672,56.152
1687169487.796,62.988,100.586,73.242,29.785,-34.180
1687169487.800,87.402,127.930,108.887,75.684,33.691
1687169487.804,92.285,131.348,109.375,66.895,59.570
1687169487.808,100.098,135.254,106.445,52.734,-0.488
1687169487.812,79.590,131.836,111.328,56.152,-12.695
1687169487.816,60.059,122.559,109.863,49.316,30.762
1687169487.819,68.848,119.629,100.098,54.688,4.883
1687169487.823,59.082,118.652,95.703,64.941,-10.254
1687169487.827,50.293,115.723,97.168,62.012,12.207
1687169487.831,56.152,112.793,93.750,55.664,34.668
1687169487.835,62.988,109.375,91.797,63.965,84.961
1687169487.839,71.777,108.887,87.402,71.777,56.641
1687169487.843,64.453,111.328,84.961,70.801,17.090
1687169487.847,53.223,107.910,88.379,71.777,44.434
1687169487.851,61.035,102.539,85.449,77.148,136.230
1687169487.855,46.875,100.098,80.566,56.152,78.613
1687169487.859,20.508,97.168,78.613,32.715,56.641
1687169487.862,36.621,96.680,73.242,36.133,101.074
1687169487.866,45.898,94.727,72.754,42.480,30.762
1687169487.870,42.480,90.820,72.266,44.922,-17.578
1687169487.874,28.320,91.309,64.453,26.855,-7.812
1687169487.878,11.719,90.332,64.453,14.160,-0.977
1687169487.882,27.344,87.402,69.336,23.926,-11.230
1687169487.886,32.227,86.914,70.312,17.090,-9.277
1687169487.890,33.203,86.426,67.383,22.949,11.230
1687169487.894,41.504,87.402,65.918,29.785,-12.207
1687169487.898,49.316,89.844,65.430,23.438,0.488
1687169487.902,46.875,86.914,61.523,31.250,43.945
1687169487.905,32.227,79.590,63.965,32.227,31.250
1687169487.909,45.410,79.590,60.547,24.902,-5.371
1687169487.913,42.480,80.566,58.105,14.160,-10.742
1687169487.917,27.344,75.195,57.617,4.395,59.570
1687169487.921,15.625,70.312,57.617,24.414,88.379
1687169487.925,13.672,68.359,58.594,17.090,15.625
1687169487.929,52.734,68.848,52.734,0.488,-13.184
1687169487.933,65.918,69.824,54.688,6.836,71.289
1687169487.937,49.316,70.801,55.664,3.906,25.391
1687169487.941,39.551,71.289,56.641,14.648,-45.410
1687169487.944,39.062,70.801,56.152,18.066,29.297
1687169487.948,46.387,72.754,48.828,24.902,32.715
1687169487.952,30.762,67.871,49.805,38.086,15.137
1687169487.956,7.812,64.941,51.758,28.809,18.555
1687169487.960,24.414,70.801,52.734,35.645,-7.324
1687169487.964,42.480,69.824,49.316,42.480,49.316
1687169487.968,32.715,65.430,50.293,41.504,109.863
1687169487.972,35.645,67.383,51.758,54.199,24.902
1687169487.976,43.945,68.848,50.293,70.312,11.230
1687169487.980,47.363,67.871,55.176,89.844,18.066
1687169487.983,50.293,70.801,54.688,83.984,43.945
1687169487.987,48.340,73.730,50.781,82.520,55.176
1687169487.991,37.598,73.242,51.270,82.520,70.312
1687169487.995,35.645,70.801,52.734,75.195,45.410
1687169487.999,34.180,66.406,52.246,91.309,16.113
1687169488.003,28.320,67.871,53.223,91.309,81.055
1687169488.007,38.574,70.801,55.664,101.074,73.730
1687169488.011,43.945,73.730,51.758,84.961,20.508
1687169488.015,38.086,72.266,52.246,88.379,18.555
1687169488.019,22.461,70.312,52.734,145.020,39.062
1687169488.023,19.043,72.266,46.387,114.258,8.301
1687169488.026,24.414,70.312,46.875,94.238,7.812
1687169488.030,30.762,66.406,49.316,116.211,29.785
1687169488.034,48.340,67.383,46.387,84.473,64.453
1687169488.038,45.410,69.824,45.898,62.988,91.797
1687169488.042,24.414,70.801,46.387,63.477,54.199
1687169488.046,17.578,69.336,49.805,62.500,52.246
1687169488.050,9.277,60.547,57.129,64.453,71.289
1687169488.054,29.785,58.594,57.617,72.266,33.691
1687169488.058,22.461,62.012,49.805,53.711,33.691
1687169488.062,5.371,62.500,46.387,36.621,57.617
1687169488.066,35.645,63.477,56.152,34.668,-46.387
1687169488.069,44.434,59.570,55.176,41.016,-33.203
1687169488.073,28.809,54.688,52.246,40.527,103.027
1687169488.077,14.160,54.199,54.688,15.625,68.359
1687169488.081,23.438,56.641,51.758,6.836,-25.879
1687169488.085,22.949,56.152,52.734,8.789,20.996
1687169488.089,1.465,53.223,50.781,5.859,46.387
1687169488.093,-10.254,51.270,50.781,14.648,28.809
1687169488.097,-14.160,56.152,51.758,4.395,57.129
1687169488.101,2.930,58.105,49.316,-3.906,31.738
1687169488.105,15.137,57.129,52.246,2.930,23.926
1687169488.109,-4.395,57.617,51.270,1.465,20.508
1687169488.112,-11.230,59.570,48.340,-16.113,12.207
1687169488.116,-10.742,61.523,51.758,-6.348,6.348
1687169488.120,-2.930,59.082,55.176,7.812,17.578
1687169488.124,11.230,58.105,54.688,-5.371,41.016
1687169488.128,15.137,63.965,46.387,-6.348,13.184
1687169488.132,8.301,62.988,44.434,-4.883,22.949
1687169488.136,-8.301,55.176,48.828,-1.465,13.184
1687169488.140,-6.836,54.199,46.387,8.301,54.688
1687169488.144,-4.883,58.594,45.410,24.902,86.914
1687169488.148,-15.137,58.105,44.922,31.738,28.809
1687169488.151,-16.113,58.594,43.945,22.461,28.809
1687169488.155,-0.977,58.105,41.992,25.879,89.355
1687169488.159,10.254,54.688,42.969,27.344,120.605
1687169488.163,11.230,57.129,44.922,34.180,139.160
1687169488.167,6.836,59.570,41.992,41.016,113.770
1687169488.171,5.371,60.547,40.039,28.809,20.020
1687169488.175,-0.977,57.129,38.086,16.113,33.691
1687169488.179,-14.648,55.664,38.086,27.344,59.082
1687169488.183,-8.301,57.617,40.039,20.508,61.523
1687169488.187,12.207,60.547,40.039,18.066,46.875
1687169488.191,21.484,60.059,41.504,50.293,-10.742
1687169488.194,-4.883,58.594,42.480,49.316,28.809
1687169488.198,-11.719,60.547,42.480,41.992,56.152
1687169488.202,9.766,63.477,41.016,48.828,13.672
1687169488.206,1.953,63.477,42.969,40.039,13.672
1687169488.210,12.695,62.012,44.434,40.527,34.180
1687169488.214,15.625,62.012,40.039,49.805,51.270
1687169488.218,15.625,60.547,40.039,46.387,47.852
1687169488.222,20.508,58.105,42.969,45.898,12.695
1687169488.226,-2.930,56.641,42.969,55.664,-0.488
1687169488.230,0.977,60.547,40.527,55.664,9.277
1687169488.234,16.602,65.918,36.621,71.777,12.695
1687169488.237,16.602,68.359,39.551,71.289,5.859
1687169488.241,7.812,63.965,45.898,54.199,17.578
1687169488.245,-9.766,60.547,49.316,65.918,69.824
1687169488.249,-27.344,63.965,50.293,74.707,27.832
1687169488.253,-20.020,63.965,47.852,74.707,-68.359
1687169488.257,8.301,63.477,43.457,74.707,-40.527
1687169488.261,13.672,64.941,45.410,64.453,62.500
1687169488.265,6.836,66.406,44.922,59.082,50.781
1687169488.269,10.254,65.430,43.945,73.730,21.973
1687169488.273,4.395,64.453,43.457,75.195,59.082
1687169488.276,12.207,62.500,43.457,82.031,76.660
1687169488.280,4.883,64.453,41.016,93.262,93.750
1687169488.284,-2.930,65.918,44.434,99.121,77.637
1687169488.288,10.742,65.430,42.969,98.145,49.805
1687169488.292,10.742,64.941,41.016,88.379,15.625
1687169488.296,0.000,63.965,44.922,77.637,-16.113
1687169488.300,11.719,62.012,41.992,71.289,56.152
1687169488.304,15.625,62.988,44.434,62.988,85.938
1687169488.308,6.348,62.012,51.270,68.848,-5.859
1687169488.312,5.371,61.523,51.270,79.102,20.508
1687169488.316,21.484,65.918,44.434,77.637,73.730
1687169488.319,30.273,68.848,42.969,72.266,23.926
1687169488.323,39.062,74.707,42.969,84.961,-17.090
1687169488.327,52.246,76.172,36.621,128.906,5.371
1687169488.331,50.293,71.289,36.133,155.273,32.227
1687169488.335,41.016,67.871,36.621,159.668,54.688
1687169488.339,37.109,64.941,36.621,164.551,125.000
1687169488.343,27.832,64.453,40.527,165.527,77.148
1687169488.347,-1.465,63.477,40.527,167.480,-10.742
1687169488.351,-22.949,62.500,43.457,172.363,44.922
1687169488.355,-3.418,62.988,46.387,148.438,17.578
1687169488.358,12.207,63.965,40.039,78.613,-51.270
1687169488.362,11.719,63.965,43.945,53.711,5.371
1687169488.366,18.066,61.523,47.852,62.500,57.129
1687169488.370,14.648,60.547,41.504,45.898,106.445
1687169488.374,17.578,61.035,44.434,38.574,103.516
1687169488.378,23.926,62.012,46.875,17.578,67.871
1687169488.382,8.301,64.453,43.457,-0.977,32.715
1687169488.386,3.906,58.105,43.945,3.418,51.270
1687169488.390,7.812,60.547,45.898,-17.578,105.957
1687169488.394,18.066,63.965,44.434,-19.531,35.156
1687169488.398,41.016,58.105,44.922,6.348,37.109
1687169488.401,30.762,57.129,46.387,1.465,99.609
1687169488.405,23.926,64.453,45.410,-10.254,13.672
1687169488.409,32.715,63.965,45.410,-18.555,20.020
1687169488.413,25.391,63.477,44.434,-22.949,46.875
1687169488.417,25.879,65.918,45.898,-10.254,22.949
1687169488.421,33.203,61.035,46.387,-10.254,54.199
1687169488.425,19.531,60.547,47.363,-23.926,20.508
1687169488.429,8.789,61.523,47.363,-20.020,-42.480
1687169488.433,18.555,60.059,45.898,-27.344,15.625
1687169488.437,13.184,60.547,48.340,-38.086,127.930
1687169488.441,24.902,62.500,49.805,-19.043,104.492
1687169488.444,38.574,62.988,50.781,-19.043,41.016
1687169488.448,9.277,59.570,47.852,-43.457,16.113
1687169488.452,25.391,59.082,42.969,-66.895,11.719
1687169488.456,30.762,56.641,47.852,-76.172,74.219
1687169488.460,19.531,61.035,51.270,-70.312,79.590
1687169488.464,27.832,65.918,49.316,-62.500,-3.906
1687169488.468,28.320,62.500,48.828,-61.035,-37.598
1687169488.472,40.527,64.453,46.875,-63.965,23.926
1687169488.476,43.945,67.871,44.434,-62.012,59.082
1687169488.480,49.316,66.406,42.480,-37.109,34.668
1687169488.483,47.363,63.965,43.945,-22.461,-6.348
1687169488.487,41.992,65.430,47.363,-36.133,43.945
1687169488.491,43.945,66.895,44.922,-41.992,20.508
1687169488.495,24.414,64.941,42.480,-36.133,1.465
1687169488.499,24.902,63.477,45.410,-27.344,33.203
1687169488.503,40.039,62.500,44.922,-13.672,-22.461
1687169488.507,40.039,62.988,42.480,-9.766,18.555
1687169488.511,40.527,62.988,41.016,-11.230,63.477
1687169488.515,42.969,62.988,43.457,-7.812,19.531
1687169488.519,49.805,62.500,43.945,-9.766,56.641
1687169488.523,33.203,61.523,41.504,6.836,51.758
1687169488.526,26.855,61.523,40.527,15.137,43.457
1687169488.530,46.387,60.547,41.992,-0.977,64.941
1687169488.534,42.969,58.105,42.969,1.953,-1.465
1687169488.538,32.715,57.617,42.480,3.418,3.418
1687169488.542,25.391,58.594,44.434,3.906,9.766
1687169488.546,27.832,60.547,47.363,12.695,-0.977
1687169488.550,36.133,63.965,46.387,0.000,20.020
1687169488.554,28.320,62.500,45.410,1.953,70.801
1687169488.558,24.902,58.594,45.898,10.254,123.535
1687169488.562,19.043,61.523,44.434,10.742,39.551
1687169488.566,24.414,62.012,43.945,15.625,-19.043
1687169488.569,22.949,59.570,44.922,-0.977,-32.715
1687169488.573,21.973,62.012,41.504,-14.648,3.906
1687169488.577,18.555,62.500,40.039,5.371,41.992
1687169488.581,20.996,62.012,42.480,6.836,21.484
1687169488.585,38.086,63.477,43.457,7.812,27.344
1687169488.589,34.668,62.988,48.340,22.461,18.066
1687169488.593,36.133,63.477,48.828,24.414,32.227
1687169488.597,36.621,70.312,48.340,31.250,24.902
1687169488.601,34.180,73.730,49.316,31.250,11.230
1687169488.605,25.391,71.777,47.852,20.508,20.996
1687169488.608,21.484,71.289,43.457,24.902,0.488
1687169488.612,24.902,67.383,44.434,33.691,-1.953
1687169488.616,18.066,72.266,58.105,29.785,42.969
1687169488.620,3.418,71.777,58.594,27.832,54.688
1687169488.624,-1.953,64.453,65.430,23.438,17.090
1687169488.628,-5.859,70.801,75.684,1.465,-40.527
1687169488.632,-18.066,72.266,75.684,-9.277,-10.742
1687169488.636,-29.297,65.918,84.961,-4.395,28.809
1687169488.640,-37.109,65.918,96.680,-19.531,24.902
1687169488.644,-52.734,64.941,106.445,-44.922,44.434
1687169488.648,-62.500,61.035,115.234,-60.059,64.453
1687169488.651,-63.477,56.152,124.023,-47.363,47.363
1687169488.655,-69.336,55.664,128.418,-35.645,25.879
1687169488.659,-77.637,59.082,124.512,-50.781,10.254
1687169488.663,-74.707,62.012,120.117,-62.012,13.672
1687169488.667,-86.426,62.012,118.652,-70.801,29.785
1687169488.671,-91.797,58.105,117.188,-71.289,73.242
1687169488.675,-71.289,60.059,110.352,-63.477,135.254
1687169488.679,-86.426,61.035,110.840,-71.777,115.234
1687169488.683,-93.262,59.570,109.863,-76.172,13.672
1687169488.687,-79.590,63.477,108.887,-84.961,-43.945
1687169488.690,-75.195,64.453,103.027,-111.816,38.574
1687169488.694,-65.430,62.988,93.750,-107.910,0.488
1687169488.698,-70.312,66.406,90.332,-88.867,-72.266
1687169488.702,-64.941,67.383,85.938,-91.309,-42.480
1687169488.706,-51.270,62.500,83.008,-87.891,47.852
1687169488.710,-44.434,60.059,84.961,-86.426,85.938
1687169488.714,-62.500,57.129,85.449,-87.402,48.828
1687169488.718,-42.969,57.617,78.125,-75.684,-13.184
1687169488.722,-21.973,64.453,63.477,-69.336,-23.438
1687169488.726,-28.809,70.312,53.711,-65.430,64.453
1687169488.730,-2.441,67.871,54.688,-63.965,96.680
1687169488.733,4.883,61.523,51.270,-68.848,58.594
1687169488.737,-5.371,60.059,47.363,-62.500,52.734
1687169488.741,3.906,62.012,47.852,-35.645,47.852
1687169488.745,20.508,64.453,41.992,-27.832,34.180
1687169488.749,11.719,64.941,32.715,-38.086,13.184
1687169488.753,2.441,60.547,32.715,-44.922,18.066
1687169488.757,0.000,57.617,37.598,-48.340,56.641
1687169488.761,14.648,60.059,34.668,-25.391,43.945
1687169488.765,33.203,63.965,29.297,-17.090,34.180
1687169488.769,16.113,60.547,29.785,-26.855,52.246
1687169488.773,16.113,56.641,33.691,-22.949,52.246
1687169488.776,41.016,64.941,25.391,-23.926,49.805
1687169488.780,37.109,63.477,20.508,-31.738,30.273
1687169488.784,22.461,62.012,21.484,-23.926,31.250
1687169488.788,13.184,65.918,19.043,-29.297,29.785
1687169488.792,21.484,65.918,18.066,-14.160,29.297
1687169488.796,4.883,69.824,12.695,1.953,37.109
1687169488.800,-12.207,70.801,5.859,-10.254,-33.203
1687169488.804,8.301,69.336,8.301,-11.230,-45.410
1687169488.808,5.859,69.824,8.789,-23.438,-16.113
1687169488.812,1.465,71.289,14.648,-22.949,42.969
1687169488.815,0.977,71.777,13.672,-28.809,74.219
1687169488.819,1.465,72.266,10.254,-42.480,16.113
1687169488.823,-9.766,75.684,19.043,-36.133,-27.344
1687169488.827,-22.461,78.613,23.438,-36.621,16.602
1687169488.831,-23.926,80.078,22.461,-48.828,67.871
1687169488.835,-29.785,85.938,23.926,-65.430,12.695
1687169488.839,-47.852,93.750,27.344,-62.500,52.734
1687169488.843,-53.223,96.191,27.344,-75.195,81.055
1687169488.847,-37.109,94.727,29.785,-108.398,82.520
1687169488.851,-37.109,95.703,34.180,-98.633,55.176
1687169488.855,-37.109,91.797,41.992,-76.660,12.207
1687169488.858,-46.875,87.402,48.340,-88.867,39.551
1687169488.862,-45.898,89.355,46.875,-96.191,29.785
1687169488.866,-40.039,92.285,41.016,-86.914,58.594
1687169488.870,-53.711,91.309,33.691,-82.031,77.148
1687169488.874,-54.199,85.449,35.645,-104.980,82.031
1687169488.878,-47.852,79.590,42.480,-114.746,89.844
1687169488.882,-43.945,80.566,42.480,-99.121,114.746
1687169488.886,-30.762,80.566,37.109,-95.703,120.117
1687169488.890,-5.859,79.590,35.645,-70.801,25.879
1687169488.894,-13.672,81.543,27.832,-60.547,41.504
1687169488.898,-29.785,81.543,20.508,-78.613,46.387
1687169488.901,-13.672,81.543,20.020,-83.008,-52.734
1687169488.905,1.465,82.520,21.973,-79.102,-5.371
1687169488.909,13.672,81.055,22.461,-69.824,60.547
1687169488.913,18.066,81.543,21.484,-58.105,-2.441
1687169488.917,11.230,82.031,23.438,-51.758,-16.602
1687169488.921,12.695,78.613,16.602,-60.059,17.090
1687169488.925,45.410,76.172,9.277,-54.688,20.020
1687169488.929,50.293,74.707,12.695,-30.273,31.250
1687169488.933,48.828,72.754,17.090,-22.949,24.902
1687169488.937,61.523,73.242,13.184,-16.602,7.324
1687169488.940,56.152,71.289,8.301,2.930,23.438
1687169488.944,57.129,71.777,9.277,-6.836,11.719
1687169488.948,73.242,73.730,9.766,-29.785,51.758
1687169488.952,60.059,73.730,5.371,-16.602,46.387
1687169488.956,57.617,71.777,5.859,-6.348,15.137
1687169488.960,80.566,70.312,8.789,-20.508,19.531
1687169488.964,91.309,68.359,12.207,-15.137,-14.648
1687169488.968,81.543,70.312,13.672,-5.859,-17.090
1687169488.972,69.336,71.777,14.648,5.371,-1.953
1687169488.976,77.637,67.871,19.043,-3.418,22.461
1687169488.980,62.988,67.383,23.438,-25.391,31.738
1687169488.983,72.266,66.895,21.484,-19.531,100.586
1687169488.987,80.078,65.918,21.484,-14.648,128.906
1687169488.991,56.641,65.918,23.926,-16.602,120.605
1687169488.995,74.219,66.895,24.414,-16.113,96.680
1687169488.999,78.125,69.336,26.367,-21.484,32.227
1687169489.003,85.938,68.848,27.832,-30.762,22.461
1687169489.007,91.309,68.848,31.250,-33.203,60.547
1687169489.011,87.402,72.266,33.203,-19.043,57.129
1687169489.015,92.773,70.801,32.227,-31.250,22.949
1687169489.019,87.402,68.848,31.250,-45.898,63.965
1687169489.023,85.938,73.242,31.250,-43.945,38.086
1687169489.026,98.145,76.172,30.762,-40.039,-9.766
1687169489.030,80.078,74.707,32.715,-35.156,21.973
1687169489.034,68.359,74.219,34.668,-15.137,21.973
1687169489.038,88.379,76.172,33.203,9.277,-20.508
1687169489.042,76.660,73.242,32.227,4.883,-6.836
1687169489.046,67.383,72.754,32.227,3.418,5.859
1687169489.050,57.129,76.172,30.762,-13.184,-37.598
1687169489.054,62.012,72.266,31.738,-23.926,16.602
1687169489.058,62.012,70.312,33.203,-25.879,50.781
1687169489.062,54.199,69.336,33.203,-33.203,92.773
1687169489.065,71.289,69.824,33.691,-37.598,113.281
1687169489.069,69.824,70.312,34.180,-53.223,78.125
1687169489.073,59.082,66.406,37.598,-44.922,52.246
1687169489.077,49.805,66.895,39.551,-20.020,11.230
1687169489.081,47.852,72.754,34.180,-14.160,-27.832
1687169489.085,63.477,76.660,24.902,7.812,-41.992
1687169489.089,64.941,73.242,32.715,21.484,0.977
1687169489.093,29.785,64.941,47.363,4.395,4.395
1687169489.097,28.809,64.453,44.922,17.578,7.812
1687169489.101,39.062,69.824,41.992,38.574,75.684
1687169489.104,20.996,69.336,46.875,25.391,91.309
1687169489.108,14.648,70.312,54.688,28.809,53.223
1687169489.112,23.438,73.242,60.547,28.809,20.996
1687169489.116,31.738,68.848,62.988,20.996,42.969
1687169489.120,26.855,69.336,61.523,35.645,98.145
1687169489.124,25.391,68.848,61.523,43.457,91.797
1687169489.128,33.691,69.824,66.406,51.270,85.449
1687169489.132,31.250,71.777,65.918,44.922,111.328
1687169489.136,21.484,70.801,60.547,36.133,77.148
1687169489.140,12.695,72.266,57.129,44.922,39.551
1687169489.144,18.555,68.848,60.059,59.082,32.227
1687169489.147,28.809,67.871,60.547,71.777,46.387
1687169489.151,27.344,69.336,54.688,70.801,91.309
1687169489.155,41.504,69.336,51.270,71.289,78.613
1687169489.159,44.434,70.312,53.223,80.566,28.320
1687169489.163,54.688,72.754,54.688,69.824,18.066
1687169489.167,71.289,73.730,52.246,48.340,68.848
1687169489.171,46.387,70.312,53.711,37.109,41.016
1687169489.175,40.527,68.359,55.176,40.039,-17.090
1687169489.179,39.062,63.477,54.199,33.691,-5.371
1687169489.183,12.695,62.500,53.711,32.227,70.312
1687169489.187,8.301,61.035,57.617,33.203,9.766
1687169489.190,9.766,58.105,61.035,28.809,-3.418
1687169489.194,15.137,60.547,55.176,31.250,78.613
1687169489.198,21.484,62.500,53.223,20.508,66.895
1687169489.202,22.949,62.500,52.246,5.371,57.617
1687169489.206,20.020,63.477,51.758,4.395,58.594
1687169489.210,25.879,67.871,50.781,-1.465,57.617
1687169489.214,38.086,66.895,46.387,-16.113,38.574
1687169489.218,13.184,64.453,47.363,-17.090,0.000
1687169489.222,10.742,66.406,49.316,-7.324,35.156
1687169489.226,30.762,64.941,50.781,-14.160,48.340
1687169489.230,18.555,64.453,46.875,-32.715,-7.812
1687169489.233,25.879,63.965,42.969,-26.367,20.996
1687169489.237,30.762,63.965,42.969,-22.949,4.395
1687169489.241,27.344,61.035,42.969,-22.461,39.551
1687169489.245,15.137,62.500,43.457,-18.066,73.730
1687169489.249,9.766,64.453,38.086,-18.066,43.457
1687169489.253,24.414,63.477,38.086,-5.371,45.410
1687169489.257,19.043,63.477,39.551,-1.953,8.789
1687169489.261,10.742,62.500,36.621,-6.836,-14.648
1687169489.265,6.348,66.406,38.086,-12.695,34.180
1687169489.269,9.277,66.406,39.551,-10.254,64.453
1687169489.272,15.137,61.035,37.598,-11.230,33.203
1687169489.276,10.254,61.035,37.598,-10.742,-4.395
1687169489.280,18.555,65.430,40.039,-6.348,53.223
1687169489.284,25.879,63.477,40.527,-11.230,40.039
1687169489.288,8.789,61.523,41.016,-8.789,-9.766
1687169489.292,0.488,63.477,41.504,6.348,-24.902
1687169489.296,6.836,62.012,38.574,12.695,3.906
1687169489.300,-2.441,58.105,37.598,13.184,50.781
1687169489.304,11.230,55.664,37.598,3.906,27.344
1687169489.308,16.602,57.129,39.062,-5.371,37.598
1687169489.312,11.719,57.617,40.527,-0.488,11.719
1687169489.315,18.555,58.105,40.527,9.766,29.297
1687169489.319,12.207,61.035,42.480,26.855,75.195
1687169489.323,1.465,56.152,43.945,23.438,36.133
1687169489.327,0.977,54.199,43.945,15.625,18.066
1687169489.331,-4.395,55.664,44.434,16.113,-27.832
1687169489.335,0.000,58.105,44.922,5.859,-38.574
1687169489.339,8.301,62.988,48.340,0.977,31.250
1687169489.343,15.625,70.801,53.223,-7.812,-21.484
1687169489.347,26.855,76.172,56.152,-2.930,-30.762
1687169489.351,26.367,77.148,55.664,15.625,8.301
1687169489.355,30.762,77.148,51.270,14.648,34.180
1687169489.358,32.227,73.242,51.758,11.719,59.570
1687169489.362,25.879,71.777,55.664,7.812,5.371
1687169489.366,8.301,73.242,53.223,8.301,-39.062
1687169489.370,10.742,75.684,51.270,-5.859,17.578
1687169489.374,37.598,73.242,52.246,-7.324,34.668
1687169489.378,45.898,69.824,48.828,11.719,60.547
1687169489.382,36.621,72.266,47.852,8.789,30.762
1687169489.386,36.133,73.730,47.363,0.977,15.137
1687169489.390,41.016,72.754,44.434,-18.066,90.820
1687169489.394,29.297,71.289,43.457,-20.508,93.750
1687169489.397,22.949,71.289,46.875,-11.230,45.898
1687169489.401,24.414,70.801,49.805,-15.625,18.555
1687169489.405,10.742,70.801,45.410,-14.160,39.551
1687169489.409,24.414,72.266,45.410,-17.578,69.824
1687169489.413,22.949,72.754,45.898,-17.090,6.348
1687169489.417,16.113,70.801,45.898,-32.715,-6.836
1687169489.421,14.648,68.848,43.945,-44.922,60.547
1687169489.425,9.277,67.871,42.969,-49.805,44.434
1687169489.429,29.785,69.336,45.410,-49.316,38.574
1687169489.433,26.855,68.848,43.945,-32.227,53.711
1687169489.437,23.926,64.941,40.039,-25.879,51.270
1687169489.440,23.926,65.918,41.504,-23.926,57.617
1687169489.444,12.207,66.406,42.969,-29.297,30.762
1687169489.448,4.883,62.988,40.527,-34.180,29.297
1687169489.452,1.953,59.570,41.992,-37.109,54.199
1687169489.456,-8.301,58.594,43.945,-29.785,24.902
1687169489.460,-7.812,60.547,40.527,-18.066,40.039
1687169489.464,1.953,59.082,41.016,-2.441,68.359
1687169489.468,15.625,55.664,46.875,22.461,51.758
1687169489.472,35.645,59.570,46.387,35.156,19.531
1687169489.476,19.531,62.012,40.039,28.320,-34.180
1687169489.479,-6.836,59.570,40.527,19.043,-27.832
1687169489.483,-10.254,54.688,43.457,22.949,-2.930
1687169489.487,-9.277,54.688,44.434,23.926,2.441
1687169489.491,-19.043,56.641,39.551,7.324,-18.555
1687169489.495,-20.508,56.152,35.645,2.441,-39.062
1687169489.499,-29.297,55.176,37.109,-2.441,17.090
1687169489.503,-12.207,57.617,35.645,-8.789,27.344
1687169489.507,7.324,62.500,34.668,-17.578,14.648
1687169489.511,-5.859,62.500,33.203,-31.250,45.898
1687169489.515,-9.766,62.500,24.902,-26.855,73.242
1687169489.519,-11.230,61.523,24.902,-8.301,76.660
1687169489.522,-20.020,57.617,31.738,-7.324,26.855
1687169489.526,-22.461,59.570,34.180,-13.672,-3.906
1687169489.530,-17.578,61.035,30.762,-17.090,50.293
1687169489.534,-20.996,61.035,24.902,-13.184,83.008
1687169489.538,-30.273,61.523,27.344,-20.996,-5.371
1687169489.542,-30.273,61.523,26.855,-21.973,-55.664
1687169489.546,-13.672,60.547,24.414,-15.625,-35.156
1687169489.550,-9.277,59.082,29.297,-21.484,22.461
1687169489.554,-11.230,61.523,32.227,-13.184,68.848
1687169489.558,-10.254,62.500,31.738,-10.254,36.133
1687169489.561,-6.836,63.477,32.715,1.953,10.254
1687169489.565,-3.906,62.988,35.645,19.043,-16.602
1687169489.569,-8.301,62.012,36.621,15.137,-15.137
1687169489.573,-22.949,61.523,33.203,6.348,57.129
1687169489.577,-23.438,61.523,33.203,0.488,46.875
1687169489.581,-16.602,62.500,36.133,-4.395,4.395
1687169489.585,-20.508,62.012,33.691,-8.789,17.090
1687169489.589,-8.301,61.523,32.715,-16.602,68.848
1687169489.593,-1.465,64.453,32.227,-27.832,74.219
1687169489.597,-3.418,63.965,34.180,-33.691,67.383
1687169489.601,4.883,63.965,32.715,-19.531,52.246
1687169489.604,8.301,63.965,28.320,-14.648,-8.789
1687169489.608,0.977,62.012,30.762,-9.277,-13.184
1687169489.612,-8.789,64.941,31.738,-5.371,14.160
1687169489.616,-11.719,67.871,29.297,-5.371,34.668
1687169489.620,12.207,65.430,35.156,0.977,-0.488
1687169489.624,5.859,62.012,39.062,-8.789,9.277
1687169489.628,-1.465,64.453,35.645,-7.812,54.688
1687169489.632,21.484,68.848,36.621,3.418,-5.859
1687169489.636,20.508,66.895,35.156,-1.465,8.789
1687169489.640,14.648,63.477,34.180,-19.531,115.234
1687169489.644,9.766,62.500,36.621,-29.785,99.609
1687169489.647,3.418,61.035,39.062,-32.227,47.363
1687169489.651,12.207,59.082,42.480,-9.277,74.707
1687169489.655,24.414,62.012,42.969,11.230,64.453
1687169489.659,18.555,70.801,38.574,-6.348,22.461
1687169489.663,5.371,75.684,32.715,-11.719,51.758
1687169489.667,-3.906,72.754,33.203,-12.695,37.598
1687169489.671,-4.395,69.824,34.180,-21.973,79.590
1687169489.675,3.906,71.777,29.785,-23.438,111.816
1687169489.679,7.324,74.707,26.367,-29.297,91.309
1687169489.683,0.488,73.242,26.367,-33.203,79.590
1687169489.687,-10.254,74.707,23.438,-43.457,39.551
1687169489.690,-11.230,80.566,19.043,-57.129,88.379
1687169489.694,-18.066,79.590,17.090,-46.387,96.680
1687169489.698,-20.508,80.566,19.043,-41.504,33.691
1687169489.702,-14.160,83.984,18.066,-46.875,-9.766
1687169489.706,-17.090,80.566,10.254,-54.688,25.391
1687169489.710,-13.672,78.125,6.836,-49.805,21.484
1687169489.714,3.418,73.242,11.719,-50.781,11.230
1687169489.718,16.113,68.848,14.648,-62.988,20.508
1687169489.722,12.207,73.242,13.184,-75.195,8.301
1687169489.726,10.254,74.707,15.137,-99.609,22.461
1687169489.729,7.324,71.289,16.113,-116.211,3.906
1687169489.733,0.000,70.312,17.578,-100.586,17.578
1687169489.737,6.836,68.359,18.066,-85.938,41.504
1687169489.741,18.066,68.359,17.578,-91.309,44.922
1687169489.745,18.066,71.777,18.555,-99.121,43.945
1687169489.749,19.531,71.777,20.020,-100.586,7.812
1687169489.753,24.414,70.801,20.996,-111.816,-7.324
1687169489.757,28.809,69.824,21.484,-109.375,31.250
1687169489.761,21.484,68.359,23.926,-93.262,38.086
1687169489.765,13.184,69.336,23.438,-89.355,10.742
1687169489.769,30.762,69.824,20.996,-87.402,5.859
1687169489.772,33.691,69.336,20.508,-83.984,11.719
1687169489.776,25.391,67.383,24.902,-81.543,47.363
1687169489.780,31.738,65.918,23.926,-76.660,35.645
1687169489.784,27.344,66.895,19.531,-73.242,27.344
1687169489.788,17.090,64.453,26.855,-64.453,34.668
1687169489.792,25.879,64.453,29.785,-64.453,54.688
1687169489.796,29.785,63.965,26.855,-52.734,81.543
1687169489.800,20.508,62.012,31.250,-36.621,10.254
1687169489.804,25.879,64.941,32.227,-44.434,12.207
1687169489.808,38.086,63.477,32.227,-68.359,36.621
1687169489.811,30.273,61.523,29.297,-68.359,35.645
1687169489.815,24.902,63.477,29.297,-56.641,37.109
1687169489.819,34.180,61.523,34.180,-60.059,32.715
1687169489.823,30.273,58.105,34.180,-45.898,22.461
1687169489.827,19.043,59.082,34.180,-35.645,-5.371
1687169489.831,27.832,60.547,34.668,-22.949,53.711
1687169489.835,46.387,58.594,36.621,0.488,49.805
1687169489.839,58.594,61.523,39.062,2.441,33.691
1687169489.843,34.180,66.406,37.598,-41.504,0.488
1687169489.847,10.254,65.430,32.715,-90.820,11.719
1687169489.851,14.648,65.918,29.297,-99.609,52.734
1687169489.854,20.508,65.918,29.297,-96.680,16.113
1687169489.858,12.207,66.406,32.227,-95.703,52.734
1687169489.862,3.906,67.871,34.668,-85.938,94.238
1687169489.866,4.395,69.824,35.156,-83.496,45.410
1687169489.870,6.348,69.824,35.156,-77.637,26.855
1687169489.874,16.602,67.383,34.668,-48.828,37.109
1687169489.878,20.508,66.406,33.203,-24.414,7.324
1687169489.882,10.254,66.895,32.715,-4.395,22.949
1687169489.886,26.367,69.336,30.762,19.531,49.316
1687169489.890,24.902,70.312,30.762,21.484,21.484
1687169489.893,5.371,68.359,32.227,7.324,7.812
1687169489.897,22.949,67.871,34.180,-20.020,18.555
1687169489.901,41.504,69.824,35.156,-37.109,48.828
1687169489.905,27.832,67.871,33.203,-3.418,45.410
1687169489.909,23.438,67.383,31.738,21.973,-5.371
1687169489.913,5.859,66.895,34.180,34.180,21.973
1687169489.917,17.090,63.965,33.691,58.105,20.996
1687169489.921,47.852,63.477,33.691,62.500,17.090
1687169489.925,36.621,62.500,35.645,29.785,55.176
1687169489.929,28.320,62.012,35.645,0.977,45.898
1687169489.933,26.367,65.918,37.598,2.441,24.902
1687169489.936,26.367,67.383,40.039,16.113,33.203
1687169489.940,22.949,63.965,40.527,-2.441,34.180
1687169489.944,36.133,62.500,41.504,-0.977,73.730
1687169489.948,42.969,60.547,41.504,-5.371,72.266
1687169489.952,26.367,59.082,36.133,-13.184,22.949
1687169489.956,27.344,62.500,36.133,-13.672,52.734
1687169489.960,21.973,61.523,39.551,-48.340,73.730
1687169489.964,10.742,61.523,38.574,-77.637,88.867
1687169489.968,18.555,62.012,38.086,-85.938,64.453
1687169489.972,20.508,61.523,40.527,-84.473,36.621
1687169489.976,14.648,61.035,41.992,-83.008,59.082
1687169489.979,10.742,59.570,43.945,-93.262,88.379
1687169489.983,21.973,61.523,41.504,-107.910,41.504
1687169489.987,33.203,63.965,42.969,-113.281,52.734
1687169489.991,17.578,63.477,43.945,-107.422,34.180
1687169489.995,6.348,62.988,43.457,-102.051,-53.711
1687169489.999,12.207,65.918,43.945,-84.473,-1.465
1687169490.003,29.785,68.359,40.039,-73.242,67.871
1687169490.007,19.531,67.383,40.527,-58.594,44.434
1687169490.011,16.602,66.895,37.109,-40.527,9.277
1687169490.015,34.668,65.918,33.691,-33.691,4.395
1687169490.019,39.551,66.895,40.527,-23.438,13.672
1687169490.022,32.227,71.289,42.969,-21.973,4.395
1687169490.026,27.344,72.754,43.457,-28.809,-10.254
1687169490.030,26.855,72.266,43.457,-23.926,0.977
1687169490.034,23.438,68.359,43.945,-26.367,33.203
1687169490.038,37.598,68.848,42.969,-45.898,19.531
1687169490.042,40.527,68.359,41.504,-65.918,38.086
1687169490.046,52.734,73.242,40.039,-73.242,80.078
1687169490.050,61.523,76.660,36.621,-69.824,75.195
1687169490.054,49.805,71.289,33.203,-58.594,86.426
1687169490.058,50.293,67.871,32.715,-62.012,102.051
1687169490.061,57.617,67.383,37.109,-66.895,146.973
1687169490.065,41.992,70.801,39.551,-60.547,64.941
1687169490.069,27.344,73.730,40.527,-55.176,39.551
1687169490.073,15.137,69.824,41.992,-50.781,100.586
1687169490.077,3.418,64.941,44.434,-43.945,108.398
1687169490.081,-13.672,64.453,45.898,-46.875,88.867
1687169490.085,-16.602,66.895,44.922,-55.176,17.578
1687169490.089,-10.742,68.359,44.922,-57.617,-28.320
1687169490.093,-19.043,66.406,43.457,-68.848,19.043
1687169490.097,-7.324,68.359,42.480,-77.148,114.258
1687169490.101,0.000,68.848,42.480,-104.004,68.359
1687169490.104,-11.230,67.871,46.387,-118.164,27.832
1687169490.108,-24.414,72.754,48.340,-100.586,39.551
1687169490.112,-21.484,74.219,48.828,-95.215,-14.160
1687169490.116,-32.715,76.172,52.734,-85.449,18.066
1687169490.120,-35.156,84.473,52.734,-92.773,61.523
1687169490.124,-23.438,86.914,52.734,-95.215,26.367
1687169490.128,-42.480,83.008,55.176,-70.312,37.598
1687169490.132,-52.246,85.449,59.082,-60.059,37.598
1687169490.136,-35.156,83.984,56.641,-65.430,44.922
1687169490.140,-24.902,86.426,49.316,-55.176,41.504
1687169490.143,-23.438,88.867,53.223,-53.223,4.395
1687169490.147,-43.457,85.938,58.105,-74.707,33.691
1687169490.151,-60.059,86.426,59.082,-85.938,65.430
1687169490.155,-67.383,89.844,56.152,-87.891,-10.254
1687169490.159,-58.594,91.797,50.781,-75.195,-17.090
1687169490.163,-37.598,90.332,58.105,-54.199,-5.371
1687169490.167,-34.180,90.332,62.012,-38.574,0.977
1687169490.171,-39.551,90.332,57.129,-37.598,35.645
1687169490.175,-40.527,91.309,56.641,-50.781,67.871
1687169490.179,-40.527,89.844,53.711,-44.922,70.312
1687169490.183,-57.129,87.891,54.688,-18.066,9.277
1687169490.186,-49.316,84.473,59.570,-5.371,36.133
1687169490.190,-41.016,76.660,58.594,-19.043,37.109
1687169490.194,-51.758,78.125,57.129,-8.301,-21.484
1687169490.198,-34.668,83.984,58.594,8.301,-24.414
1687169490.202,-25.879,81.543,60.547,1.953,-7.324
1687169490.206,-45.410,78.125,63.477,7.812,18.066
1687169490.210,-60.059,78.613,64.453,5.371,27.832
1687169490.214,-47.852,77.148,63.965,-6.836,-0.488
1687169490.218,-21.484,77.637,61.523,2.930,58.594
1687169490.222,-24.902,77.148,60.547,18.555,68.359
1687169490.225,-16.113,77.148,62.988,8.789,15.137
1687169490.229,6.836,74.707,66.406,7.812,21.973
1687169490.233,8.789,79.102,62.500,26.367,6.348
1687169490.237,1.953,83.496,55.664,15.625,76.660
1687169490.241,-7.812,77.637,51.758,3.906,81.055
1687169490.245,-2.930,76.660,51.270,19.531,31.250
1687169490.249,0.488,73.730,55.664,35.645,72.754
1687169490.253,-12.207,71.777,53.711,33.203,43.457
1687169490.257,-5.859,70.312,49.316,27.832,65.430
1687169490.261,9.766,69.824,42.969,23.926,35.645
1687169490.265,6.348,70.801,38.086,22.461,-59.082
1687169490.268,5.859,63.965,43.457,35.645,9.766
1687169490.272,14.160,58.594,50.293,47.852,62.012
1687169490.276,10.742,59.570,49.805,42.969,90.332
1687169490.280,22.461,62.012,41.992,24.902,29.785
1687169490.284,37.598,60.059,33.691,37.598,-15.625
1687169490.288,30.273,52.246,33.203,36.621,56.641
1687169490.292,32.227,57.129,26.367,28.320,62.500
1687169490.296,52.246,63.965,20.020,51.758,42.480
1687169490.300,58.105,64.941,20.020,53.223,-21.484
1687169490.304,56.152,65.918,21.484,50.781,-62.988
1687169490.308,46.387,61.035,26.855,57.129,-11.230
1687169490.311,52.734,51.758,26.855,74.707,25.879
1687169490.315,53.223,49.316,28.320,87.402,10.254
1687169490.319,39.062,49.316,30.273,84.961,26.367
1687169490.323,55.176,54.199,20.996,85.938,26.367
1687169490.327,71.777,58.594,11.230,89.355,4.395
1687169490.331,82.031,56.641,14.648,86.426,12.695
1687169490.335,66.895,47.363,24.902,76.172,-4.883
1687169490.339,56.152,42.969,25.879,58.594,-20.020
1687169490.343,78.125,51.758,20.996,65.430,-28.320
1687169490.347,86.914,60.547,13.672,86.426,1.465
1687169490.351,83.984,54.199,17.090,93.750,41.016
1687169490.354,73.242,43.945,30.273,84.473,45.898
1687169490.358,63.477,42.480,35.156,82.031,66.895
1687169490.362,62.988,41.016,40.039,87.402,89.844
1687169490.366,46.875,43.945,38.574,84.961,39.062
1687169490.370,43.945,44.922,33.203,103.516,-14.648
1687169490.374,57.129,44.922,30.273,122.070,20.508
1687169490.378,51.758,45.898,29.785,126.953,-18.555
1687169490.382,51.270,46.875,31.250,125.000,-47.363
1687169490.386,72.754,50.293,32.227,120.605,-24.414
1687169490.390,79.102,48.828,32.715,117.188,24.902
1687169490.393,61.035,45.410,30.273,124.023,66.895
1687169490.397,63.477,42.969,32.227,119.141,55.176
1687169490.401,74.707,42.969,34.668,88.867,57.129
1687169490.405,58.594,44.434,33.691,52.246,119.629
1687169490.409,58.105,44.922,33.203,27.344,56.152
1687169490.413,49.805,40.039,34.180,5.859,7.324
1687169490.417,41.504,38.574,35.156,-34.180,40.527
1687169490.421,54.688,41.016,34.180,-83.496,13.184
1687169490.425,37.109,40.039,31.250,-114.258,22.949
1687169490.429,49.805,38.574,32.715,-152.344,21.973
1687169490.433,64.453,40.527,29.297,-164.551,26.855
1687169490.436,58.105,42.480,25.391,-156.250,46.387
1687169490.440,50.293,41.016,25.879,-170.898,-0.977
1687169490.444,45.410,42.480,26.855,-175.781,15.625
1687169490.448,48.340,47.363,29.297,-182.617,42.480
1687169490.452,51.270,47.363,28.809,-192.871,68.359
1687169490.456,46.875,47.363,26.367,-192.871,86.426
1687169490.460,32.715,47.363,23.438,-199.219,111.328
1687169490.464,45.898,43.945,21.973,-202.148,59.570
1687169490.468,45.898,41.992,21.484,-195.312,17.578
1687169490.472,39.551,41.504,22.461,-183.594,44.922
1687169490.476,36.621,41.992,24.902,-166.992,32.227
1687169490.479,22.461,41.504,26.855,-161.133,35.645
1687169490.483,33.691,42.969,28.320,-158.203,27.344
1687169490.487,40.039,46.387,24.902,-151.855,20.020
1687169490.491,42.969,45.410,24.414,-133.789,45.410
1687169490.495,41.504,44.922,27.832,-128.906,89.355
1687169490.499,30.273,48.828,26.855,-126.465,48.340
1687169490.503,20.020,48.340,28.320,-114.746,17.090
1687169490.507,29.297,49.316,27.832,-113.770,85.449
1687169490.511,33.691,49.805,24.414,-113.770,77.148
1687169490.515,28.320,44.434,26.367,-114.258,16.602
1687169490.518,27.344,43.457,26.367,-109.863,0.000
1687169490.522,25.879,46.875,26.855,-85.938,20.508
1687169490.526,39.062,46.387,31.250,-78.613,35.645
1687169490.530,48.828,48.828,33.691,-80.078,28.809
1687169490.534,46.387,54.199,31.738,-74.219,48.340
1687169490.538,29.297,52.734,30.762,-76.172,75.684
1687169490.542,20.996,51.270,29.297,-78.125,91.309
1687169490.546,36.621,52.734,29.785,-78.613,64.941
1687169490.550,40.039,55.176,30.762,-89.355,-11.230
1687169490.554,32.715,54.199,32.715,-89.355,26.367
1687169490.558,26.855,52.246,32.715,-79.102,48.340
1687169490.561,26.855,54.688,30.273,-55.176,-8.789
1687169490.565,17.090,53.223,27.832,-41.016,-11.719
1687169490.569,15.137,50.781,26.855,-32.715,45.410
1687169490.573,31.250,49.805,27.832,-20.508,29.785
1687169490.577,23.438,47.852,27.832,-16.113,8.301
1687169490.581,25.879,47.363,26.367,-12.207,15.137
1687169490.585,31.738,50.781,26.367,-23.438,-11.230
1687169490.589,34.180,48.828,27.344,-53.711,14.160
1687169490.593,33.203,51.270,19.043,-70.312,54.688
1687169490.597,48.828,64.453,7.812,-47.852,18.555
1687169490.600,58.594,61.035,20.508,-32.715,-1.953
1687169490.604,25.391,44.434,44.922,-66.406,30.762
1687169490.608,5.371,36.133,50.293,-69.336,56.641
1687169490.612,11.230,36.133,49.316,-43.457,77.637
1687169490.616,6.348,32.715,55.176,-43.457,0.488
1687169490.620,-13.184,29.297,59.082,-46.387,-17.090
1687169490.624,-1.465,29.297,57.617,-52.734,39.062
1687169490.628,6.348,25.391,63.477,-63.477,46.875
1687169490.632,-9.766,20.508,71.289,-56.641,94.238
1687169490.636,3.418,21.973,67.383,-27.344,73.730
1687169490.640,4.883,17.090,70.801,-10.254,14.648
1687169490.643,-4.883,18.066,83.496,-5.371,2.930
1687169490.647,8.301,30.762,96.680,32.227,62.012
1687169490.651,5.859,32.227,107.422,55.664,14.648
1687169490.655,23.438,29.785,104.980,63.965,-75.684
1687169490.659,20.508,26.855,104.004,70.312,-72.266
1687169490.663,6.836,23.926,105.469,62.988,-37.109
1687169490.667,12.695,20.996,104.980,70.312,23.926
1687169490.671,2.930,15.137,108.398,76.660,34.180
1687169490.675,3.906,11.230,102.539,70.312,-6.348
1687169490.679,10.254,10.254,96.191,73.730,-9.766
1687169490.682,11.230,12.695,93.750,83.496,22.949
1687169490.686,4.395,16.602,87.891,78.613,40.527
1687169490.690,14.648,20.508,83.984,89.844,35.156
1687169490.694,4.395,15.625,80.566,95.703,42.969
1687169490.698,10.742,15.625,77.148,92.773,34.180
1687169490.702,34.668,19.043,74.707,95.703,5.371
1687169490.706,18.555,17.090,74.707,90.332,47.852
1687169490.710,15.625,20.996,74.219,92.285,102.539
1687169490.714,5.859,21.973,70.801,86.426,58.105
1687169490.718,-10.742,23.926,66.895,82.031,57.129
1687169490.722,2.930,27.344,62.012,88.867,77.148
1687169490.725,13.672,25.391,60.547,98.145,72.754
1687169490.729,30.762,27.344,60.547,112.793,51.758
1687169490.733,30.273,33.691,60.547,114.258,33.203
1687169490.737,18.555,32.715,60.059,108.398,-1.953
1687169490.741,28.809,29.785,60.547,108.887,8.789
1687169490.745,41.992,36.621,62.012,108.398,44.922
1687169490.749,45.898,41.992,62.500,100.098,34.180
1687169490.753,39.551,40.527,63.477,57.129,43.457
1687169490.757,34.180,38.574,62.988,3.906,35.645
1687169490.761,28.809,40.039,58.105,-10.742,40.527
1687169490.765,18.555,41.992,55.176,-21.484,42.969
1687169490.768,17.090,43.457,55.664,-42.480,60.059
1687169490.772,32.715,44.922,54.199,-54.688,33.691
1687169490.776,41.016,43.945,51.270,-62.500,24.414
1687169490.780,40.527,44.922,51.270,-55.664,83.984
1687169490.784,40.039,48.340,52.734,-41.504,39.062
1687169490.788,28.809,48.828,50.781,-34.668,-2.441
1687169490.792,16.602,45.410,50.293,-18.066,11.230
1687169490.796,18.555,40.527,48.340,-1.465,-15.137
1687169490.800,12.207,41.504,46.387,4.395,-28.320
1687169490.804,17.090,43.945,50.781,13.672,-19.043
1687169490.807,20.508,45.410,52.246,25.391,-12.695
1687169490.811,13.672,43.945,52.734,46.387,-3.418
1687169490.815,13.184,43.457,51.758,57.129,-5.859
1687169490.819,6.836,45.898,51.758,45.410,-5.859
1687169490.823,-3.418,46.875,52.246,38.086,42.969
1687169490.827,11.719,47.363,49.316,29.297,77.637
1687169490.831,7.324,45.898,52.246,19.531,52.734
1687169490.835,-5.371,44.922,51.270,3.418,29.297
1687169490.839,7.812,45.410,46.387,-1.953,26.367
1687169490.843,12.207,44.434,46.387,4.395,0.000
1687169490.847,3.906,46.875,48.340,7.324,-1.953
1687169490.850,12.207,48.828,47.852,17.578,19.531
1687169490.854,11.719,48.340,46.875,19.043,-3.418
1687169490.858,-1.465,51.758,48.340,16.113,18.066
1687169490.862,9.277,54.199,47.852,16.602,46.875
1687169490.866,11.230,54.199,43.945,9.277,14.648
1687169490.870,-0.488,57.129,43.457,13.184,25.879
1687169490.874,-4.883,56.641,42.480,20.508,-9.277
1687169490.878,24.414,59.082,33.691,27.832,1.465
1687169490.882,32.715,62.012,35.156,22.949,33.691
1687169490.886,-4.883,55.176,44.434,4.883,72.266
1687169490.889,-11.230,46.875,47.363,-5.371,70.312
1687169490.893,8.789,45.410,48.340,1.953,57.617
1687169490.897,8.301,45.410,47.852,9.277,24.902
1687169490.901,15.625,42.969,47.852,14.160,61.523
1687169490.905,20.996,43.457,44.922,17.090,85.938
1687169490.909,4.883,44.922,40.527,10.254,93.750
1687169490.913,5.371,45.410,42.480,12.207,85.449
1687169490.917,27.832,46.875,41.992,10.254,110.840
1687169490.921,44.922,50.293,44.434,4.395,107.910
1687169490.925,41.992,51.270,44.922,2.441,1.953
1687169490.929,31.250,49.805,42.480,7.324,-15.137
1687169490.932,24.902,49.316,41.992,3.906,18.555
1687169490.936,27.344,51.270,41.016,10.254,56.641
1687169490.940,30.762,53.223,42.969,1.465,53.223
1687169490.944,22.949,55.664,44.922,-49.805,22.461
1687169490.948,26.367,57.129,44.922,-88.379,33.691
1687169490.952,30.762,58.105,41.504,-114.746,64.941
1687169490.956,14.160,55.664,42.480,-125.488,86.426
1687169490.960,17.578,50.781,42.480,-129.395,65.430
1687169490.964,25.391,51.758,42.480,-140.625,41.992
1687169490.968,25.391,52.246,45.898,-135.742,70.312
1687169490.972,37.598,51.758,45.410,-139.648,67.871
1687169490.975,36.621,55.664,44.922,-145.508,5.371
1687169490.979,40.039,58.594,43.457,-131.836,-24.902
1687169490.983,41.504,60.547,42.969,-125.000,3.906
1687169490.987,40.039,59.082,42.969,-117.188,60.059
1687169490.991,55.664,54.688,43.457,-94.727,16.113
1687169490.995,63.965,57.617,42.480,-86.426,19.043
1687169490.999,52.246,59.570,39.062,-83.008,65.918
1687169491.003,45.410,57.617,41.016,-75.195,66.406
1687169491.007,41.992,54.688,45.898,-68.359,72.266
1687169491.011,30.273,49.316,45.410,-53.711,40.039
1687169491.014,22.461,48.340,42.969,-47.852,25.391
1687169491.018,-1.953,48.340,42.969,-45.898,77.148
1687169491.022,9.277,49.316,41.992,-45.410,96.680
1687169491.026,41.016,52.246,42.480,-41.992,74.707
1687169491.030,34.180,53.711,43.945,-39.062,55.664
1687169491.034,36.133,54.199,41.504,-46.387,-10.254
1687169491.038,32.715,50.293,38.574,-52.734,-65.918
1687169491.042,28.809,49.805,41.992,-39.062,-25.391
1687169491.046,39.062,51.758,41.016,-35.645,16.602
1687169491.050,34.180,50.293,37.598,-48.340,24.414
1687169491.054,28.320,47.852,42.480,-55.176,78.613
1687169491.057,27.832,48.340,44.922,-58.594,56.641
1687169491.061,5.859,51.758,41.992,-57.129,49.805
1687169491.065,5.859,52.734,38.574,-52.734,45.898
1687169491.069,34.180,48.828,38.574,-44.434,10.254
1687169491.073,19.531,46.875,39.551,-48.340,11.719
1687169491.077,15.137,43.945,39.062,-43.945,20.020
1687169491.081,20.508,43.457,41.992,-31.738,28.809
1687169491.085,15.137,47.363,41.504,-35.156,26.367
1687169491.089,12.207,48.828,43.457,-21.973,34.180
1687169491.093,10.254,47.363,46.875,-24.902,12.695
1687169491.097,20.996,47.852,41.992,-37.109,-34.668
1687169491.100,26.855,48.828,41.992,-17.578,-27.344
1687169491.104,17.578,47.852,44.434,-8.301,37.598
1687169491.108,13.672,49.316,42.480,-10.254,39.551
1687169491.112,12.695,50.293,44.922,2.930,38.086
1687169491.116,12.207,52.734,46.387,19.531,61.035
1687169491.120,18.555,50.293,46.387,29.785,79.590
1687169491.124,25.879,51.758,48.340,49.316,79.102
1687169491.128,29.297,53.711,45.898,60.547,38.574
1687169491.132,29.785,50.781,43.457,74.219,13.672
1687169491.136,26.367,50.781,41.504,106.445,32.227
1687169491.140,31.250,51.758,41.016,138.184,72.754
1687169491.143,14.160,52.246,41.504,148.926,58.105
1687169491.147,6.836,53.223,41.992,155.273,27.344
1687169491.151,30.273,53.711,41.992,182.129,16.602
1687169491.155,44.434,51.758,42.969,194.824,4.883
1687169491.159,54.199,52.246,44.922,187.012,-12.207
1687169491.163,44.922,51.758,42.969,184.570,-11.719
1687169491.167,43.457,47.852,41.992,196.289,34.668
1687169491.171,52.734,47.363,38.574,208.008,56.152
1687169491.175,40.039,46.387,36.621,207.031,56.641
1687169491.179,25.879,36.621,43.457,208.008,64.453
1687169491.182,35.156,24.414,46.387,207.520,73.730
1687169491.186,32.227,20.020,44.922,213.867,17.578
1687169491.190,21.973,20.020,46.875,211.426,23.438
1687169491.194,19.043,20.020,50.293,208.496,85.938
1687169491.198,23.438,20.020,50.293,213.867,64.453
1687169491.202,43.945,22.949,50.781,206.055,37.598
1687169491.206,22.949,26.855,48.828,203.125,-16.602
1687169491.210,18.555,28.320,44.922,211.426,-19.043
1687169491.214,44.434,27.832,45.410,215.820,-13.672
1687169491.218,41.504,29.785,45.898,208.496,17.578
1687169491.222,36.133,32.227,42.480,210.938,23.438
1687169491.225,14.648,33.691,44.434,206.055,9.277
1687169491.229,11.230,36.133,48.340,204.590,15.137
1687169491.233,30.762,37.598,45.898,208.496,12.695
1687169491.237,24.414,38.574,47.363,190.430,63.477
1687169491.241,29.785,41.016,48.828,159.180,-5.371
1687169491.245,34.668,41.992,48.828,131.836,-47.852
1687169491.249,33.691,39.062,50.781,105.957,70.801
1687169491.253,34.180,38.574,49.805,98.145,105.469
1687169491.257,24.902,39.551,50.781,94.727,74.707
1687169491.261,28.809,43.945,49.805,91.309,40.527
1687169491.264,23.438,47.852,47.852,94.238,-15.625
1687169491.268,21.973,47.852,48.340,95.703,-63.477
1687169491.272,37.598,47.363,48.828,93.750,-2.441
1687169491.276,42.969,46.387,50.293,84.961,38.086
1687169491.280,46.875,44.922,44.922,62.012,-25.391
1687169491.284,42.969,45.898,43.457,49.316,-24.414
1687169491.288,30.273,43.457,41.992,54.199,-3.906
1687169491.292,18.555,44.922,42.480,60.547,75.195
1687169491.296,14.160,51.270,44.434,65.430,52.246
1687169491.300,18.555,48.340,41.504,68.359,29.785
1687169491.304,30.273,45.898,42.480,65.918,76.660
1687169491.307,37.109,46.875,41.016,60.059,56.641
1687169491.311,13.184,44.922,39.062,66.406,41.016
1687169491.315,13.184,45.898,41.504,75.195,40.527
1687169491.319,28.809,48.828,43.945,74.219,48.828
1687169491.323,12.207,51.758,43.945,67.383,125.000
1687169491.327,19.043,52.734,44.434,64.453,122.070
1687169491.331,1.953,56.152,46.875,77.148,58.594
1687169491.335,-9.766,57.617,47.363,75.684,26.367
1687169491.339,16.602,56.641,44.922,52.734,23.926
1687169491.343,25.391,56.152,45.898,44.434,18.555
1687169491.346,28.809,53.711,47.363,42.480,-9.277
1687169491.350,29.785,57.617,45.410,46.387,-11.230
1687169491.354,28.809,60.547,47.852,39.551,-35.645
1687169491.358,19.043,61.523,45.898,17.578,53.711
1687169491.362,13.672,61.035,45.410,-17.578,122.070
1687169491.366,24.902,56.641,48.340,-27.832,14.160
1687169491.370,33.203,53.223,50.293,-29.297,-8.789
1687169491.374,38.574,57.129,48.828,-27.344,10.254
1687169491.378,24.414,60.547,44.922,3.418,-0.977
1687169491.382,40.039,59.082,46.387,27.344,-11.230
1687169491.386,46.387,61.523,45.410,36.133,15.137
1687169491.389,28.809,62.500,41.992,46.875,55.176
1687169491.393,31.250,61.035,41.992,68.359,65.918
1687169491.397,30.762,62.012,41.504,70.312,119.629
1687169491.401,27.832,60.547,40.527,54.688,100.586
1687169491.405,29.785,57.129,44.434,51.758,51.758
1687169491.409,31.738,61.035,46.387,75.195,4.395
1687169491.413,20.996,61.523,44.434,109.375,20.020
1687169491.417,10.742,60.059,41.504,129.395,78.613
1687169491.421,23.926,60.059,43.945,128.418,83.008
1687169491.425,37.109,60.547,47.852,89.844,108.398
1687169491.429,30.762,64.453,44.922,54.199,138.672
1687169491.432,22.461,62.500,42.480,39.062,55.664
1687169491.436,22.949,60.547,43.457,24.902,13.184
1687169491.440,29.785,62.012,45.410,20.996,37.598
1687169491.444,34.668,62.988,44.922,25.879,19.531
1687169491.448,29.297,62.500,45.898,37.598,34.180
1687169491.452,26.367,62.500,49.316,49.805,56.641
1687169491.456,32.227,59.570,48.340,51.270,62.012
1687169491.460,33.203,59.570,44.434,49.805,65.430
1687169491.464,32.227,61.035,43.945,56.152,93.262
1687169491.468,27.832,61.523,47.852,73.730,87.402
1687169491.472,32.715,64.941,49.316,81.055,27.832
1687169491.475,39.062,62.988,47.852,81.543,10.742
1687169491.479,31.250,62.012,49.316,99.121,0.977
1687169491.483,36.133,64.453,48.828,120.605,9.277
1687169491.487,39.551,64.453,46.875,128.906,-46.875
1687169491.491,36.621,62.012,49.316,138.672,-62.500
1687169491.495,43.457,59.570,46.387,143.555,-8.789
1687169491.499,40.527,59.570,43.945,142.578,32.227
1687169491.503,39.551,62.500,46.875,149.414,9.277
1687169491.507,49.316,63.477,49.316,154.785,-19.531
1687169491.511,28.320,63.477,50.293,158.203,45.898
1687169491.514,25.879,64.941,52.246,178.711,37.598
1687169491.518,51.270,65.430,48.828,194.824,54.688
1687169491.522,43.945,64.453,45.898,200.684,89.844
1687169491.526,43.457,62.988,48.340,214.355,1.953
1687169491.530,43.457,61.523,48.340,227.051,-8.301
1687169491.534,49.316,63.477,47.852,231.934,22.949
1687169491.538,44.434,65.918,47.363,239.258,-7.812
1687169491.542,33.691,65.918,47.363,243.164,0.000
1687169491.546,43.945,66.406,44.434,246.094,33.203
1687169491.550,41.016,66.895,42.480,235.840,43.945
1687169491.554,39.062,65.918,44.922,224.121,1.465
1687169491.557,42.480,66.406,48.340,228.027,-13.184
1687169491.561,55.664,67.871,52.734,225.098,-9.766
1687169491.565,47.363,69.336,53.223,207.520,19.043
1687169491.569,32.715,68.848,50.781,207.031,27.344
1687169491.573,51.270,69.824,48.828,208.496,65.918
1687169491.577,57.617,67.383,50.293,198.242,29.297
1687169491.581,44.922,62.500,54.199,194.336,4.395
1687169491.585,39.551,63.477,53.711,185.547,61.035
1687169491.589,56.152,64.941,53.223,178.711,87.402
1687169491.593,51.270,68.359,51.758,167.480,2.930
1687169491.597,40.039,72.266,47.852,135.254,-31.250
1687169491.600,53.711,71.777,49.316,75.684,-10.254
1687169491.604,59.570,70.312,49.805,26.367,-42.480
1687169491.608,53.711,70.801,42.969,20.020,26.367
1687169491.612,41.504,70.801,44.922,39.551,71.289
1687169491.616,40.039,68.848,49.316,55.176,39.062
1687169491.620,50.781,68.848,50.293,58.105,8.789
1687169491.624,40.527,71.289,49.805,55.664,41.016
1687169491.628,34.668,71.289,51.270,53.711,39.062
1687169491.632,27.832,73.242,53.223,39.062,-5.371
1687169491.636,36.133,75.195,54.199,44.434,-14.648
1687169491.639,46.875,73.730,55.176,56.152,-39.551
1687169491.643,41.504,73.242,53.711,47.363,37.109
1687169491.647,38.086,73.242,49.316,43.945,35.645
1687169491.651,30.273,71.289,49.316,47.852,-3.418
1687169491.655,36.621,72.266,51.270,42.969,64.453
1687169491.659,46.875,72.266,49.805,30.273,89.355
1687169491.663,34.180,67.383,50.781,22.461,55.664
1687169491.667,35.156,69.336,51.270,24.902,69.824
1687169491.671,44.434,70.801,50.781,11.230,50.781
1687169491.675,29.297,69.336,47.852,-3.906,9.277
1687169491.678,35.156,69.336,47.363,-17.578,64.941
1687169491.682,29.297,70.312,49.316,-31.250,31.250
1687169491.686,31.738,71.289,49.805,-32.227,40.039
1687169491.690,48.828,68.359,49.805,-35.156,63.477
1687169491.694,53.711,62.012,57.129,-20.508,13.672
1687169491.698,67.383,59.570,55.176,0.000,48.828
1687169491.702,49.805,71.289,43.457,-21.484,62.012
1687169491.706,28.809,83.008,41.016,-69.824,21.484
1687169491.710,29.297,80.566,42.969,-91.309,45.898
1687169491.714,24.902,78.613,45.410,-84.473,45.410
1687169491.718,0.000,77.637,40.527,-86.426,2.930
1687169491.721,20.508,78.613,34.180,-85.449,-28.320
1687169491.725,29.297,82.031,34.180,-94.238,-15.137
1687169491.729,6.348,86.426,34.668,-97.656,61.523
1687169491.733,14.648,86.914,28.320,-71.777,86.914
1687169491.737,19.043,83.984,29.297,-56.152,41.992
1687169491.741,16.113,82.031,36.133,-41.992,-7.324
1687169491.745,22.461,83.496,33.203,-33.203,28.809
1687169491.749,39.062,84.473,30.762,-35.645,37.598
1687169491.753,35.156,82.031,37.109,-27.832,20.508
1687169491.757,35.645,80.566,36.133,-20.020,62.500
1687169491.761,42.969,83.496,35.156,-17.578,53.711
1687169491.764,34.668,81.543,39.551,-13.184,27.832
1687169491.768,27.832,77.637,39.551,-3.418,19.531
1687169491.772,24.414,76.172,41.016,-11.719,7.812
1687169491.776,25.879,76.660,40.039,-22.461,41.992
1687169491.780,39.551,76.660,37.109,-14.160,-7.812
1687169491.784,32.715,71.289,38.086,-15.137,19.531
1687169491.788,28.809,70.801,36.133,-19.043,42.969
1687169491.792,28.320,72.754,37.109,-20.996,53.223
1687169491.796,20.996,74.219,36.133,-14.160,78.613
1687169491.800,32.227,74.219,35.156,-20.996,21.973
1687169491.804,37.598,73.242,39.062,-31.250,-2.930
1687169491.807,37.109,70.801,39.551,-29.785,27.832
1687169491.811,28.320,69.336,39.551,-34.668,81.055
1687169491.815,25.879,72.266,41.992,-30.273,82.031
1687169491.819,31.250,73.242,41.992,-44.434,63.477
1687169491.823,25.391,72.266,38.086,-56.152,74.219
1687169491.827,31.738,69.336,38.086,-47.852,76.172
1687169491.831,28.320,68.359,38.086,-45.410,45.898
1687169491.835,16.113,70.801,38.086,-46.387,4.395
1687169491.839,20.996,71.289,40.527,-46.387,36.133
1687169491.843,27.832,72.266,41.016,-54.688,68.848
1687169491.846,22.949,75.684,41.504,-49.805,-12.695
1687169491.850,19.531,74.219,43.457,-38.086,-0.977
1687169491.854,12.207,73.730,44.922,-27.832,48.340
1687169491.858,15.137,76.660,42.969,-18.555,47.363
1687169491.862,18.555,76.660,46.387,-17.578,42.969
1687169491.866,20.996,75.195,49.316,-8.301,48.340
1687169491.870,31.738,74.219,44.434,5.371,29.297
1687169491.874,32.227,70.312,42.480,16.113,24.414
1687169491.878,27.832,64.453,44.922,22.949,30.273
1687169491.882,24.902,65.430,45.410,24.902,1.465
1687169491.886,20.020,68.848,43.457,20.020,6.836
1687169491.889,28.809,63.965,47.363,22.949,1.465
1687169491.893,64.453,54.688,50.781,45.410,27.832
1687169491.897,56.641,64.453,43.457,44.922,36.621
1687169491.901,34.180,76.172,34.180,19.043,-32.715
1687169491.905,34.180,71.777,34.180,27.344,-11.230
1687169491.909,23.438,71.289,39.062,30.273,36.133
1687169491.913,18.066,76.172,36.621,18.066,-14.648
1687169491.917,30.273,80.078,29.785,-1.465,-14.160
1687169491.921,39.551,83.008,29.297,-14.160,27.832
1687169491.925,38.574,87.891,28.809,-15.137,66.406
1687169491.929,50.781,89.355,22.461,-23.926,80.078
1687169491.932,61.035,91.797,19.531,-22.461,26.855
1687169491.936,63.965,98.145,16.113,-25.879,-58.594
1687169491.940,59.082,100.586,15.625,-37.109,-46.875
1687169491.944,58.594,102.539,15.625,-32.227,-0.977
1687169491.948,64.941,102.051,13.184,-23.926,-14.160
1687169491.952,52.246,98.633,16.113,-16.602,40.527
1687169491.956,38.574,99.609,20.508,-14.160,52.734
1687169491.960,41.992,96.680,22.461,-5.371,29.297
1687169491.964,28.809,90.820,26.367,29.297,57.129
1687169491.968,20.996,90.820,24.902,66.406,52.734
1687169491.971,26.367,89.844,25.879,90.820,-1.465
1687169491.975,41.992,89.844,27.344,135.254,-10.254
1687169491.979,53.711,91.309,25.879,146.973,31.738
1687169491.983,43.945,89.355,27.832,77.148,47.852
1687169491.987,30.273,88.867,24.414,15.625,-3.906
1687169491.991,35.645,90.332,23.438,-21.484,13.184
1687169491.995,30.762,86.914,25.879,-58.105,-11.719
1687169491.999,17.578,83.008,24.414,-83.984,-7.324
1687169492.003,34.180,82.031,26.367,-95.215,75.195
1687169492.007,36.133,80.566,30.273,-112.793,60.547
1687169492.011,22.461,81.543,24.414,-139.160,67.383
1687169492.014,33.203,82.031,20.996,-125.977,48.340
1687169492.018,24.414,79.590,30.273,-109.863,-15.137
1687169492.022,17.578,78.613,33.691,-123.047,52.734
1687169492.026,41.504,80.566,29.297,-126.953,97.656
1687169492.030,31.250,78.613,28.320,-120.605,49.805
1687169492.034,25.879,73.242,32.715,-107.422,11.719
1687169492.038,33.691,74.707,35.156,-92.285,29.297
1687169492.042,25.879,79.590,34.668,-101.074,40.527
1687169492.046,30.762,77.637,33.203,-111.328,52.734
1687169492.050,18.066,75.195,33.203,-109.863,-5.859
1687169492.053,17.090,76.172,31.738,-105.957,2.930
1687169492.057,25.879,74.219,31.738,-108.887,13.184
1687169492.061,10.254,74.707,32.227,-110.352,-8.789
1687169492.065,18.555,74.219,31.738,-108.398,18.066
1687169492.069,30.273,70.801,33.691,-107.422,33.203
1687169492.073,8.789,70.312,34.180,-106.445,5.859
1687169492.077,18.555,68.848,31.738,-102.539,-6.348
1687169492.081,38.574,65.430,29.297,-81.543,83.008
1687169492.085,28.809,67.871,30.273,-62.012,121.094
1687169492.089,20.020,71.289,36.133,-55.664,57.617
1687169492.093,25.391,73.242,38.574,-36.133,14.648
1687169492.096,37.598,74.707,36.621,-28.320,19.043
1687169492.100,24.902,76.660,32.715,-23.926,23.438
1687169492.104,21.973,77.637,34.180,-17.090,29.785
1687169492.108,24.414,75.684,35.156,-12.207,29.785
1687169492.112,17.578,73.242,29.785,-5.371,62.012
1687169492.116,38.086,70.801,29.297,-16.113,103.516
1687169492.120,49.316,73.242,31.738,-15.625,71.289
1687169492.124,42.969,73.242,33.203,-4.883,63.965
1687169492.128,39.551,70.312,37.109,8.789,82.031
1687169492.132,38.574,73.242,41.016,7.812,24.902
1687169492.136,41.016,74.707,41.992,-13.672,10.254
1687169492.139,32.715,72.754,42.969,-15.625,50.781
1687169492.143,28.809,72.266,45.410,-19.531,55.664
1687169492.147,25.391,74.219,46.875,-27.344,101.562
1687169492.151,21.973,75.684,45.898,-43.457,73.242
1687169492.155,20.996,76.660,41.504,-55.664,33.691
1687169492.159,14.648,75.195,41.992,-42.969,47.363
1687169492.163,19.531,72.266,44.434,-36.621,31.250
1687169492.167,27.832,70.312,45.898,-35.645,36.621
1687169492.171,20.020,66.406,48.828,-30.273,62.012
1687169492.175,15.625,68.848,48.340,-21.973,17.578
1687169492.178,23.926,69.824,46.875,-14.160,-12.695
1687169492.182,11.230,68.848,47.852,-10.254,66.406
1687169492.186,13.672,70.801,49.316,-5.371,76.660
1687169492.190,18.066,70.801,45.898,3.418,40.527
1687169492.194,16.113,72.266,45.410,9.766,76.660
1687169492.198,26.367,71.777,52.734,11.719,26.367
1687169492.202,14.160,71.777,52.734,15.137,-29.297
1687169492.206,8.789,73.242,50.293,18.066,17.090
1687169492.210,32.715,73.730,48.340,-2.441,36.133
1687169492.214,45.410,70.801,46.387,-16.602,24.414
1687169492.218,44.434,71.289,48.340,8.789,-1.465
1687169492.221,48.828,71.289,48.340,21.484,-61.523
1687169492.225,36.621,70.312,45.410,24.902,21.484
1687169492.229,31.250,72.266,41.016,32.715,120.605
1687169492.233,39.062,67.383,41.504,35.645,44.922
1687169492.237,32.227,66.406,42.480,25.879,7.324
1687169492.241,39.062,71.777,45.410,24.902,27.344
1687169492.245,44.434,72.266,44.922,30.762,37.109
1687169492.249,38.086,72.266,42.480,27.344,-2.441
1687169492.253,29.297,76.660,42.480,32.227,-26.855
1687169492.257,36.133,77.148,44.922,36.133,26.367
1687169492.261,41.992,75.684,47.363,36.621,55.664
1687169492.264,41.504,75.195,42.969,42.969,33.203
1687169492.268,27.832,70.312,43.457,32.227,2.441
1687169492.272,24.414,69.824,48.340,32.227,57.129
1687169492.276,37.109,72.754,46.387,30.762,109.375
1687169492.280,37.109,70.801,46.875,26.855,33.203
1687169492.284,27.832,72.754,46.387,31.250,15.625
1687169492.288,24.414,75.195,42.969,20.020,76.172
1687169492.292,38.574,72.754,47.363,15.137,53.223
1687169492.296,22.461,70.312,53.711,4.883,-4.395
1687169492.300,21.484,68.359,53.711,5.371,-4.395
1687169492.303,35.645,67.871,50.293,13.672,-7.812
1687169492.307,28.320,65.430,48.828,16.602,-7.324
1687169492.311,29.297,66.406,48.828,30.762,34.668
1687169492.315,19.043,68.848,48.340,34.668,19.531
1687169492.319,0.488,66.895,47.852,29.297,-5.859
1687169492.323,7.324,62.012,48.340,38.086,11.230
1687169492.327,22.461,63.477,47.363,27.832,13.184
1687169492.331,27.344,67.871,47.363,10.742,68.359
1687169492.335,29.785,68.359,46.387,11.719,84.961
1687169492.339,22.461,69.336,42.969,18.066,19.043
1687169492.343,24.414,67.871,44.434,20.020,21.484
1687169492.346,30.762,66.895,45.410,4.395,45.898
1687169492.350,25.879,65.918,42.969,14.160,22.461
1687169492.354,36.133,62.988,43.457,48.828,25.391
1687169492.358,47.363,64.941,45.410,61.035,2.441
1687169492.362,30.762,69.824,48.340,53.223,46.387
1687169492.366,12.207,73.730,47.363,43.945,56.152
1687169492.370,11.230,74.707,43.457,33.203,4.883
1687169492.374,22.949,73.730,42.480,41.016,40.527
1687169492.378,29.785,75.195,45.898,62.012,55.664
1687169492.382,16.113,72.266,51.758,50.781,18.066
1687169492.385,6.836,67.383,55.176,32.227,8.301
1687169492.389,6.836,69.336,58.594,9.277,-4.395
1687169492.393,19.531,69.336,54.688,-50.293,71.777
1687169492.397,54.199,68.359,50.293,-85.938,80.078
1687169492.401,56.152,68.359,50.781,-107.422,-4.395
1687169492.405,49.316,67.871,48.828,-128.906,20.020
1687169492.409,48.340,66.406,48.340,-132.812,48.828
1687169492.413,63.477,64.941,48.340,-122.070,17.578
1687169492.417,76.660,63.965,48.340,-112.305,59.570
1687169492.421,82.031,63.477,48.828,-115.234,95.703
1687169492.425,85.938,63.965,46.387,-113.770,68.848
1687169492.428,84.961,63.477,44.434,-105.469,1.953
1687169492.432,101.562,62.988,42.480,-109.863,-14.160
1687169492.436,120.605,62.500,43.457,-103.027,13.672
1687169492.440,135.254,61.523,47.852,-76.660,21.973
1687169492.444,137.695,62.500,45.898,-59.082,19.531
1687169492.448,128.418,64.941,41.016,-61.035,40.039
1687169492.452,144.043,64.941,39.062,-54.199,60.547
1687169492.456,149.414,64.453,42.969,-41.016,34.180
1687169492.460,138.672,64.941,41.016,-31.250,7.324
1687169492.464,130.371,65.918,37.109,-43.945,53.223
1687169492.468,141.113,65.430,40.039,-73.242,4.883
1687169492.471,148.438,66.406,41.992,-89.355,-3.906
1687169492.475,128.906,65.430,41.016,-105.957,71.289
1687169492.479,132.324,63.965,41.504,-128.418,72.754
1687169492.483,140.137,66.895,40.527,-134.277,-3.906
1687169492.487,137.207,67.383,39.551,-125.488,-29.297
1687169492.491,143.066,64.453,42.480,-109.375,52.734
1687169492.495,119.141,62.988,41.504,-99.609,73.242
1687169492.499,120.605,66.406,41.992,-102.051,46.387
1687169492.503,132.812,70.801,45.410,-96.191,71.777
1687169492.507,122.559,69.824,41.016,-84.961,81.543
1687169492.510,120.117,67.383,41.992,-84.473,48.828
1687169492.514,110.840,63.965,40.527,-91.309,47.363
1687169492.518,103.516,62.988,39.551,-94.238,6.348
1687169492.522,99.121,64.941,41.504,-88.867,19.043
1687169492.526,109.863,65.918,42.969,-70.801,34.668
1687169492.530,114.746,63.965,41.992,-52.246,40.039
1687169492.534,103.516,62.988,40.527,-28.320,106.445
1687169492.538,115.234,68.848,42.480,20.020,60.547
1687169492.542,116.699,68.359,42.969,62.012,-68.359
1687169492.546,111.816,66.895,41.504,93.750,-46.387
1687169492.550,122.070,70.801,42.480,119.629,45.898
1687169492.553,117.676,65.918,44.922,136.230,12.207
1687169492.557,109.863,62.012,44.922,149.414,28.809
1687169492.561,104.980,63.477,41.504,158.691,61.035
1687169492.565,103.027,63.965,41.504,162.598,14.160
1687169492.569,101.562,66.406,44.922,168.945,-37.109
1687169492.573,92.773,69.824,45.898,170.898,13.672
1687169492.577,87.891,73.730,45.410,170.898,2.441
1687169492.581,96.191,74.707,43.457,136.230,-73.242
1687169492.585,104.980,73.242,42.969,120.605,-15.625
1687169492.589,96.680,72.754,43.457,146.484,29.785
1687169492.593,90.820,69.336,42.480,156.250,23.438
1687169492.596,88.379,69.824,40.527,166.016,1.953
1687169492.600,82.520,70.801,44.922,175.781,24.414
1687169492.604,85.449,67.383,44.922,187.012,48.340
1687169492.608,92.773,64.941,42.969,185.547,47.852
1687169492.612,96.191,66.406,43.457,189.941,42.480
1687169492.616,92.285,69.824,40.527,185.547,44.434
1687169492.620,86.914,69.336,40.527,148.926,97.656
1687169492.624,86.426,70.312,40.039,136.719,115.723
1687169492.628,76.172,70.312,39.062,148.438,79.102
1687169492.632,71.777,67.871,40.039,148.926,105.957
1687169492.635,80.078,65.918,38.086,156.250,68.848
1687169492.639,85.449,66.406,37.109,167.969,30.762
1687169492.643,86.914,66.895,39.551,179.199,24.414
1687169492.647,78.125,65.918,43.457,181.152,38.574
1687169492.651,85.449,66.406,44.434,176.270,46.875
1687169492.655,105.957,65.430,42.480,166.016,13.672
1687169492.659,111.816,67.383,42.969,143.555,45.410
1687169492.663,98.145,65.430,39.551,143.555,5.859
1687169492.667,96.191,60.547,38.086,148.438,-21.973
1687169492.671,95.703,61.035,41.504,139.648,24.902
1687169492.675,96.191,59.570,41.504,134.766,36.133
1687169492.678,90.820,52.734,40.039,134.766,41.992
1687169492.682,75.684,56.152,41.504,129.883,41.504
1687169492.686,79.590,60.547,44.434,124.512,49.805
1687169492.690,92.285,57.129,45.410,128.418,54.199
1687169492.694,90.332,58.105,44.434,135.742,8.301
1687169492.698,86.914,60.059,47.852,131.836,0.977
1687169492.702,105.957,64.941,41.992,131.836,12.207
1687169492.706,112.793,66.406,31.250,136.230,19.531
1687169492.710,93.750,56.641,39.062,126.465,7.324
1687169492.714,71.777,49.805,53.711,105.957,18.066
1687169492.717,61.523,51.270,55.664,92.773,71.777
1687169492.721,60.059,50.781,55.176,57.129,25.391
1687169492.725,66.895,51.758,51.270,22.949,-36.133
1687169492.729,70.312,52.734,47.852,37.598,20.996
1687169492.733,63.477,54.688,48.828,46.387,-16.602
1687169492.737,69.336,58.105,45.898,38.574,-19.043
1687169492.741,81.543,56.152,40.527,38.574,12.695
1687169492.745,78.125,54.199,41.016,33.691,-32.715
1687169492.749,73.730,54.688,43.945,28.320,-34.668
1687169492.753,68.848,48.828,46.387,20.020,-17.578
1687169492.757,69.336,48.340,47.852,7.812,24.902
1687169492.760,77.637,49.805,45.898,10.742,33.203
1687169492.764,83.496,46.387,42.969,14.648,21.484
1687169492.768,85.449,42.969,39.551,14.160,28.320
1687169492.772,85.449,43.945,37.109,10.254,36.133
1687169492.776,81.055,49.805,37.109,16.602,66.406
1687169492.780,77.637,50.293,39.062,20.508,91.797
1687169492.784,69.824,49.316,43.945,14.648,69.336
1687169492.788,68.848,48.340,45.898,27.832,57.129
1687169492.792,75.684,46.875,43.945,50.293,68.359
1687169492.796,69.336,47.852,42.969,56.641,108.398
1687169492.800,55.664,49.316,42.969,63.477,84.473
1687169492.803,49.316,47.852,43.457,72.754,97.656
1687169492.807,40.527,44.922,41.992,74.219,83.984
1687169492.811,58.594,45.410,40.039,64.941,36.621
1687169492.815,79.102,44.922,41.504,49.805,9.766
1687169492.819,65.918,45.898,41.504,36.621,50.781
1687169492.823,65.430,48.828,40.527,23.438,117.676
1687169492.827,62.012,49.805,40.039,12.207,69.824
1687169492.831,57.617,48.828,41.016,11.719,-32.715
1687169492.835,52.246,52.246,41.504,21.484,30.273
1687169492.839,40.039,54.688,41.016,20.020,63.477
1687169492.842,36.133,55.176,37.598,24.902,-4.395
1687169492.846,55.176,50.781,34.180,38.574,0.000
1687169492.850,72.754,47.363,35.156,48.828,39.551
1687169492.854,69.336,50.293,39.062,48.340,6.836
1687169492.858,65.918,54.199,42.969,27.344,19.531
1687169492.862,62.012,55.664,41.992,7.812,90.820
1687169492.866,61.523,56.152,37.598,3.418,85.938
1687169492.870,60.547,58.105,41.016,-4.883,69.824
1687169492.874,65.430,59.570,41.016,-2.930,38.086
1687169492.878,71.289,58.105,36.621,16.602,-20.996
1687169492.882,64.941,58.105,38.086,41.504,18.555
1687169492.885,71.289,58.594,36.133,67.871,47.363
1687169492.889,70.312,54.688,31.738,83.496,55.176
1687169492.893,84.473,57.617,29.785,92.285,77.637
1687169492.897,108.398,61.523,28.320,92.773,0.000
1687169492.901,105.469,61.523,31.250,105.957,-46.875
1687169492.905,97.168,61.035,37.598,143.066,-28.809
1687169492.909,76.660,57.129,40.039,171.875,-37.598
1687169492.913,66.895,54.199,39.551,208.984,0.977
1687169492.917,54.688,54.688,41.992,227.539,-0.977
1687169492.921,57.129,56.641,43.945,206.543,-19.043
1687169492.925,58.105,57.129,41.992,188.965,-1.953
1687169492.928,41.016,54.688,40.527,198.730,35.645
1687169492.932,42.969,55.664,39.551,206.055,17.090
1687169492.936,51.270,53.711,37.109,169.434,-20.020
1687169492.940,51.758,54.199,40.527,124.023,31.250
1687169492.944,55.176,59.570,43.457,107.422,50.781
1687169492.948,46.875,57.129,40.527,91.797,27.832
1687169492.952,47.852,54.688,36.133,53.711,5.859
1687169492.956,60.547,56.152,34.668,18.066,44.922
1687169492.960,54.199,57.129,38.086,-1.953,57.617
1687169492.964,41.992,57.617,39.062,-16.602,16.602
1687169492.968,52.246,57.617,37.109,-14.160,51.758
1687169492.971,59.082,57.617,36.621,-16.602,78.613
1687169492.975,43.457,59.082,35.156,-23.926,63.965
1687169492.979,42.969,57.617,38.086,-28.809,31.738
1687169492.983,41.992,55.664,38.574,-18.066,11.719
1687169492.987,42.969,57.129,35.156,-10.254,85.449
1687169492.991,43.945,55.176,35.645,-9.277,113.281
1687169492.995,35.156,51.758,39.062,-15.137,51.758
1687169492.999,46.875,55.176,39.062,-28.320,4.395
1687169493.003,45.410,58.594,38.574,-44.922,6.836
1687169493.007,35.645,57.129,40.039,-67.383,63.965
1687169493.010,36.621,59.082,34.668,-74.219,63.477
1687169493.014,46.875,60.547,25.879,-66.895,48.340
1687169493.018,33.691,62.500,30.273,-67.383,97.168
1687169493.022,17.090,54.688,43.945,-79.102,96.680
1687169493.026,32.715,49.805,44.434,-88.867,29.297
1687169493.030,38.574,53.711,40.527,-98.633,-12.207
1687169493.034,35.156,52.246,40.039,-105.957,-3.418
1687169493.038,31.738,52.246,40.039,-109.375,3.418
1687169493.042,40.527,53.711,38.086,-112.793,41.504
1687169493.046,56.152,54.199,34.668,-119.141,62.012
1687169493.050,56.152,57.129,35.156,-120.117,17.578
1687169493.053,53.223,57.129,36.621,-114.258,4.883
1687169493.057,52.734,57.129,34.668,-113.281,38.574
1687169493.061,58.594,58.105,33.203,-110.840,45.410
1687169493.065,44.434,56.641,36.133,-109.863,34.180
1687169493.069,44.434,57.129,38.086,-104.980,12.695
1687169493.073,53.223,57.617,36.133,-108.887,45.898
1687169493.077,48.340,56.152,38.086,-122.070,76.172
1687169493.081,74.219,59.082,40.527,-123.047,56.152
1687169493.085,76.660,61.035,39.551,-139.648,78.125
1687169493.089,64.941,57.617,38.086,-165.527,54.199
1687169493.092,62.500,57.617,38.574,-185.059,-5.371
1687169493.096,63.965,60.059,39.062,-194.336,2.441
1687169493.100,51.758,57.617,39.062,-194.336,38.086
1687169493.104,56.641,53.223,39.551,-173.828,42.969
1687169493.108,72.266,52.246,40.039,-144.531,44.922
1687169493.112,70.312,53.223,43.457,-141.602,36.621
1687169493.116,80.078,55.176,44.922,-125.488,3.906
1687169493.120,74.707,58.594,41.992,-119.629,34.180
1687169493.124,53.223,58.105,41.992,-139.160,21.973
1687169493.128,75.684,58.105,43.945,-129.883,26.855
1687169493.132,76.172,58.594,43.945,-115.234,49.805
1687169493.135,59.082,58.105,39.062,-129.395,47.852
1687169493.139,64.453,57.617,39.551,-161.133,-2.930
1687169493.143,68.359,53.711,43.457,-175.293,26.367
1687169493.147,62.988,54.199,41.504,-166.016,121.094
1687169493.151,55.176,55.664,44.922,-158.691,88.379
1687169493.155,47.852,52.734,44.922,-168.945,1.953
1687169493.159,71.289,51.758,40.527,-170.898,19.531
1687169493.163,78.125,48.828,41.016,-177.734,83.984
1687169493.167,66.406,48.828,43.945,-194.336,47.363
1687169493.171,64.941,52.734,44.434,-179.199,19.531
1687169493.174,55.176,52.734,42.969,-166.992,0.488
1687169493.178,56.152,53.223,42.969,-174.805,-26.367
1687169493.182,57.129,52.734,42.480,-167.969,-28.320
1687169493.186,42.969,52.246,43.945,-159.668,-13.672
1687169493.190,41.016,53.223,41.016,-154.785,0.000
1687169493.194,54.199,53.711,41.504,-148.926,17.578
1687169493.198,35.156,54.199,45.410,-152.832,72.754
1687169493.202,26.367,53.711,43.457,-160.645,80.566
1687169493.206,57.129,52.246,39.062,-165.039,34.180
1687169493.210,65.918,53.223,39.062,-165.039,16.602
1687169493.214,68.359,56.152,40.527,-159.180,70.312
1687169493.217,72.754,56.152,37.598,-154.297,77.637
1687169493.221,68.359,54.688,36.133,-144.043,69.336
1687169493.225,73.730,56.641,33.203,-129.883,55.664
1687169493.229,60.547,56.152,32.227,-119.629,52.246
1687169493.233,47.852,52.246,39.551,-122.070,88.867
1687169493.237,59.570,49.316,47.363,-129.395,64.453
1687169493.241,52.246,50.781,47.852,-143.066,20.020
1687169493.245,37.598,52.734,43.457,-151.855,60.059
1687169493.249,41.992,52.246,40.039,-141.113,77.637
1687169493.253,47.852,52.734,36.133,-152.344,25.391
1687169493.257,64.453,55.176,37.598,-169.922,51.758
1687169493.260,63.477,57.617,38.086,-168.945,33.203
1687169493.264,52.246,58.594,34.180,-163.574,13.672
1687169493.268,54.199,55.664,35.156,-153.809,19.043
1687169493.272,49.805,51.270,34.180,-140.625,54.199
1687169493.276,51.270,47.852,35.156,-133.789,98.633
1687169493.280,54.199,48.828,36.133,-127.930,21.484
1687169493.284,50.293,50.293,36.133,-116.211,-25.391
1687169493.288,59.082,49.316,39.551,-112.793,-11.719
1687169493.292,67.871,48.340,37.109,-129.883,49.316
1687169493.296,62.500,46.875,38.574,-122.070,79.590
1687169493.300,55.664,49.316,38.086,-102.539,99.609
1687169493.303,59.570,54.199,33.203,-95.703,66.406
1687169493.307,52.734,51.758,34.668,-85.938,57.129
1687169493.311,52.734,50.293,35.645,-90.820,54.199
1687169493.315,62.988,52.734,35.156,-104.980,71.289
1687169493.319,65.918,52.734,35.645,-110.352,31.738
1687169493.323,69.824,52.734,35.645,-113.281,-52.734
1687169493.327,59.082,52.734,34.180,-130.371,-5.371
1687169493.331,61.523,52.734,36.621,-130.371,60.547
1687169493.335,75.195,52.246,42.969,-102.539,48.340
1687169493.339,69.336,53.223,44.434,-96.191,-9.766
1687169493.342,60.547,56.152,40.039,-100.098,-5.859
1687169493.346,65.918,54.688,37.598,-93.262,-17.090
1687169493.350,63.477,56.152,40.039,-83.008,-27.832
1687169493.354,66.895,53.711,40.039,-74.219,-10.742
1687169493.358,72.754,52.246,38.086,-68.848,27.344
1687169493.362,75.684,54.199,38.574,-63.477,63.965
1687169493.366,67.383,52.734,37.109,-60.059,68.359
1687169493.370,63.477,51.270,37.598,-41.992,103.516
1687169493.374,61.523,51.270,36.621,-41.016,90.332
1687169493.378,42.969,53.223,35.645,-52.246,30.273
1687169493.382,47.363,47.852,37.598,-38.086,10.254
1687169493.385,65.430,43.457,34.180,-20.020,19.043
1687169493.389,57.617,46.387,34.668,-4.395,34.180
1687169493.393,54.199,47.852,36.621,5.859,29.297
1687169493.397,68.848,47.363,36.621,17.090,21.484
1687169493.401,65.918,46.387,37.109,28.809,-24.414
1687169493.405,50.293,45.898,36.621,39.551,-23.438
1687169493.409,59.570,46.875,36.621,41.504,2.930
1687169493.413,55.664,45.898,35.156,27.344,16.113
1687169493.417,49.805,44.922,37.109,28.320,-2.441
1687169493.421,53.711,46.875,37.598,31.250,-20.020
1687169493.425,38.574,50.781,37.109,35.645,-13.184
1687169493.428,29.785,52.734,37.109,45.898,0.977
1687169493.432,51.758,51.758,34.668,37.598,37.109
1687169493.436,66.895,49.316,33.691,30.762,32.227
1687169493.440,65.918,46.387,35.156,25.391,17.578
1687169493.444,64.941,44.434,35.645,24.414,32.227
1687169493.448,62.988,42.480,33.691,22.461,31.738
1687169493.452,57.129,45.898,34.180,23.926,19.043
1687169493.456,52.734,45.898,32.715,29.297,24.414
1687169493.460,42.480,45.410,27.832,22.949,-19.531
1687169493.464,32.227,44.434,28.320,24.902,-21.973
1687169493.467,33.203,42.969,31.738,37.109,44.922
1687169493.471,43.457,46.387,31.250,39.551,43.945
1687169493.475,46.387,48.340,26.855,37.109,54.688
1687169493.479,48.828,47.852,25.879,22.949,67.383
1687169493.483,43.945,47.852,26.367,18.555,67.383
1687169493.487,42.969,48.828,27.344,36.133,19.043
1687169493.491,44.922,51.758,28.320,37.109,-24.414
1687169493.495,44.922,52.246,27.832,37.109,61.035
1687169493.499,34.668,52.734,30.762,47.852,77.637
1687169493.503,22.949,53.223,32.227,59.082,7.812
1687169493.507,29.785,49.316,28.809,59.082,-13.672
1687169493.510,47.852,47.363,24.902,61.523,-2.441
1687169493.514,33.203,51.270,22.949,85.449,7.324
1687169493.518,33.203,53.711,25.879,89.844,-18.555
1687169493.522,52.734,53.223,24.902,83.984,-22.949
1687169493.526,45.898,51.270,25.879,83.496,74.707
1687169493.530,39.551,49.805,27.832,67.383,57.617
1687169493.534,43.457,50.781,28.320,54.688,9.277
1687169493.538,47.363,51.758,28.809,66.406,13.184
1687169493.542,42.969,49.805,27.832,62.500,13.184
1687169493.546,29.785,46.875,26.855,51.758,42.969
1687169493.549,16.113,45.410,27.832,56.641,85.449
1687169493.553,23.926,44.434,30.762,69.824,40.039
1687169493.557,42.969,42.969,34.668,74.707,-3.418
1687169493.561,49.316,45.410,33.691,86.426,38.574
1687169493.565,50.293,47.363,29.297,96.680,-10.254
1687169493.569,56.641,46.875,32.227,100.098,-17.090
1687169493.573,50.293,48.828,35.645,106.934,45.898
1687169493.577,41.016,49.805,35.156,100.098,57.129
1687169493.581,33.691,49.805,34.180,100.586,53.711
1687169493.585,36.133,51.758,35.645,99.609,22.461
1687169493.589,42.969,52.246,37.109,95.703,63.477
1687169493.592,46.875,49.805,35.156,100.098,94.238
1687169493.596,47.363,48.340,36.133,104.980,40.527
1687169493.600,43.457,46.387,40.527,108.887,46.387
1687169493.604,47.852,45.898,41.016,129.883,39.551
1687169493.608,42.480,44.434,39.062,133.789,45.410
1687169493.612,29.785,45.410,42.969,123.535,61.523
1687169493.616,37.109,51.758,42.480,134.277,45.898
1687169493.620,24.414,53.223,37.109,136.230,50.781
1687169493.624,28.809,50.293,37.598,123.535,63.965
1687169493.628,54.688,50.293,40.527,113.770,57.617
1687169493.632,36.621,51.270,37.109,108.887,10.254
1687169493.635,41.016,51.270,36.621,102.539,-6.836
1687169493.639,57.617,51.270,39.062,95.215,53.711
1687169493.643,57.129,54.199,37.109,94.727,102.539
1687169493.647,42.969,54.688,36.621,77.148,123.535
1687169493.651,48.828,51.270,35.645,67.871,40.039
1687169493.655,60.547,50.781,33.691,70.801,-0.977
1687169493.659,62.012,50.293,35.645,63.477,36.133
1687169493.663,49.805,46.387,37.598,63.965,41.504
1687169493.667,52.246,46.387,40.527,78.125,12.695
1687169493.671,58.105,48.828,41.504,79.102,-14.160
1687169493.674,58.105,49.316,42.969,83.984,-9.766
1687169493.678,62.988,53.711,39.551,87.891,-17.090
1687169493.682,52.734,55.176,40.039,80.566,-20.020
1687169493.686,42.480,53.711,44.434,88.867,-29.297
1687169493.690,43.457,52.246,41.992,81.543,-33.691
1687169493.694,50.781,52.734,43.457,68.359,1.953
1687169493.698,41.992,55.664,45.898,49.316,-15.137
1687169493.702,31.738,57.617,45.410,35.645,-3.906
1687169493.706,26.367,55.176,48.828,30.273,70.801
1687169493.710,38.574,51.270,51.270,24.902,60.059
1687169493.714,36.621,53.711,52.734,21.973,30.762
1687169493.717,14.648,58.105,55.664,-6.836,-0.488
1687169493.721,6.348,59.570,61.523,-6.836,5.371
1687169493.725,-1.465,53.711,68.359,13.672,57.617
1687169493.729,-11.230,54.688,73.730,5.859,34.668
1687169493.733,-16.602,57.129,66.895,-19.531,18.066
1687169493.737,-28.809,53.711,65.430,-28.809,77.148
1687169493.741,-27.832,55.176,78.125,-20.508,14.160
1687169493.745,-29.297,56.641,78.125,-34.668,-9.277
1687169493.749,-32.227,54.199,79.590,-41.016,89.355
1687169493.753,-45.410,55.664,85.938,-30.273,64.941
1687169493.757,-43.945,58.594,87.402,-37.109,41.504
1687169493.760,-30.762,56.152,85.449,-49.316,85.449
1687169493.764,-34.668,53.711,88.867,-41.504,63.965
1687169493.768,-32.715,52.734,88.379,-45.410,17.578
1687169493.772,-30.273,57.617,79.590,-55.176,29.297
1687169493.776,-30.762,58.594,80.078,-59.570,-18.555
1687169493.780,-29.785,49.316,90.332,-60.059,-12.207
1687169493.784,-32.227,45.410,93.262,-63.477,45.898
1687169493.788,-32.227,50.781,87.402,-77.148,67.871
1687169493.792,-32.715,52.246,80.078,-69.336,74.219
1687169493.796,-25.391,52.734,77.637,-56.641,16.113
1687169493.799,-23.438,51.270,80.566,-41.992,50.293
1687169493.803,-19.043,48.340,82.031,-46.875,93.262
1687169493.807,-2.441,47.852,76.660,-61.523,73.242
1687169493.811,-21.973,46.387,72.266,-51.270,24.902
1687169493.815,-23.438,38.574,80.078,-46.387,1.953
1687169493.819,12.695,35.156,83.984,-41.992,43.945
1687169493.823,0.488,42.480,79.102,-36.133,105.469
1687169493.827,3.906,47.852,70.801,-28.809,35.156
1687169493.831,13.184,50.293,62.988,-19.531,-7.812
1687169493.835,2.930,45.410,66.406,-28.320,23.438
1687169493.839,10.742,42.969,72.754,-26.855,61.035
1687169493.842,0.977,49.805,65.918,-31.250,65.918
1687169493.846,-6.348,53.223,55.176,-39.062,11.230
1687169493.850,21.973,54.688,49.316,-31.738,36.133
1687169493.854,42.480,52.734,54.199,-18.555,-11.230
1687169493.858,33.691,47.852,62.500,-25.391,-39.551
1687169493.862,20.996,50.293,61.523,-31.250,-44.922
1687169493.866,24.902,56.641,50.293,-27.832,7.812
1687169493.870,32.715,55.664,46.387,-39.062,84.473
1687169493.874,14.160,43.945,60.547,-72.266,47.363
1687169493.878,-5.371,35.156,73.242,-104.980,14.648
1687169493.881,-4.883,37.598,71.777,-132.812,-25.879
1687169493.885,-18.555,41.016,62.988,-148.438,21.973
1687169493.889,-15.137,46.875,45.898,-143.555,86.426
1687169493.893,0.977,50.781,37.109,-134.766,29.785
1687169493.897,-2.930,48.340,46.875,-126.465,8.301
1687169493.901,2.930,41.504,57.617,-124.023,15.625
1687169493.905,-0.977,42.480,57.617,-138.184,6.836
1687169493.909,-1.953,54.688,43.457,-150.879,46.387
1687169493.913,8.301,54.688,42.969,-127.441,34.180
1687169493.917,9.766,45.410,50.781,-114.258,60.547
1687169493.921,21.973,44.434,53.711,-107.910,59.082
1687169493.924,34.180,48.828,49.805,-97.168,-0.488
1687169493.928,29.297,48.828,44.922,-94.238,27.344
1687169493.932,24.414,48.340,45.898,-88.867,29.785
1687169493.936,12.695,47.363,52.246,-99.609,19.531
1687169493.940,13.184,43.945,54.199,-109.863,93.262
1687169493.944,10.254,36.621,51.270,-89.355,75.684
1687169493.948,3.906,31.738,53.223,-69.824,-0.977
1687169493.952,20.508,35.156,54.199,-67.383,28.320
1687169493.956,6.836,41.504,54.199,-70.801,107.422
1687169493.960,3.906,40.527,55.664,-66.895,84.961
1687169493.964,27.832,39.062,54.688,-53.223,24.902
1687169493.967,28.809,41.992,56.641,-52.734,20.996
1687169493.971,-1.465,45.410,56.152,-63.477,21.973
1687169493.975,7.324,48.828,47.363,-65.918,66.895
1687169493.979,36.621,49.805,42.969,-74.219,58.594
1687169493.983,26.367,45.410,48.828,-84.473,32.715
1687169493.987,14.648,44.434,55.664,-62.988,47.363
1687169493.991,18.066,50.293,56.641,-50.781,53.223
1687169493.995,14.160,52.734,53.711,-58.105,17.090
1687169493.999,2.930,52.734,52.246,-60.059,13.672
1687169494.003,3.906,49.805,51.758,-52.734,-2.441
1687169494.006,13.672,43.945,55.176,-51.270,50.293
1687169494.010,11.719,45.898,52.734,-53.223,67.383
1687169494.014,3.906,52.246,46.875,-60.547,51.270
1687169494.018,4.883,44.922,45.898,-64.941,56.152
1687169494.022,6.836,38.574,48.340,-68.359,7.324
1687169494.026,1.953,43.457,51.758,-64.941,-1.465
1687169494.030,-4.883,47.852,51.758,-61.523,7.812
1687169494.034,-0.488,51.758,47.852,-55.176,60.547
1687169494.038,7.324,48.828,48.340,-44.434,24.414
1687169494.042,-1.465,41.992,55.664,-59.570,-2.441
1687169494.046,14.648,46.387,54.199,-34.668,47.852
1687169494.049,34.180,57.129,46.875,-20.996,33.203
1687169494.053,10.742,58.105,41.992,-37.109,-4.883
1687169494.057,0.000,51.758,45.898,-26.367,-4.395
1687169494.061,6.836,46.875,49.316,-11.719,-3.906
1687169494.065,7.812,42.480,53.223,-5.371,-41.016
1687169494.069,7.324,42.480,53.223,-2.930,-30.273
1687169494.073,12.695,51.758,41.016,5.371,26.855
1687169494.077,3.906,55.664,34.668,6.348,76.172
1687169494.081,-5.371,51.270,36.133,11.719,30.273
1687169494.085,8.301,46.387,41.992,26.367,59.082
1687169494.089,9.277,45.410,46.387,18.555,94.727
1687169494.092,7.812,45.410,40.527,21.973,68.848
1687169494.096,11.230,47.363,41.992,49.316,50.781
1687169494.100,-10.742,43.945,44.922,47.852,48.340
1687169494.104,-20.996,36.621,46.875,48.340,23.438
1687169494.108,-12.695,37.598,50.293,46.875,34.180
1687169494.112,9.766,48.340,42.480,45.410,57.617
1687169494.116,22.461,52.734,42.969,46.875,54.199
1687169494.120,0.488,44.922,49.805,26.855,12.207
1687169494.124,-3.418,36.133,59.082,27.344,4.883
1687169494.128,-15.137,35.645,55.664,41.504,32.715
1687169494.131,-20.020,43.945,40.039,26.855,19.043
1687169494.135,7.324,45.410,43.457,23.926,3.418
1687169494.139,2.441,43.457,44.922,20.508,38.574
1687169494.143,-12.695,45.898,42.480,16.602,-4.883
1687169494.147,-2.441,47.852,41.504,20.508,-34.668
1687169494.151,14.648,48.828,43.457,18.555,53.223
1687169494.155,19.043,41.016,51.270,20.996,58.594
1687169494.159,17.578,43.945,52.734,20.996,41.992
1687169494.163,0.488,53.223,42.480,-4.883,11.719
1687169494.167,12.207,51.270,39.062,6.836,25.879
1687169494.171,22.461,50.781,46.387,26.855,69.336
1687169494.174,21.973,56.641,41.992,9.766,47.363
1687169494.178,24.414,58.594,36.133,5.859,7.324
1687169494.182,25.391,60.059,37.109,15.137,37.598
1687169494.186,10.254,60.547,39.551,22.949,3.906
1687169494.190,10.254,59.082,43.457,27.344,28.320
1687169494.194,34.180,59.570,41.504,20.996,-7.812
1687169494.198,20.020,55.664,41.992,20.020,15.137
1687169494.202,32.227,51.758,42.480,27.832,80.078
1687169494.206,55.664,50.293,41.992,29.297,4.395
1687169494.210,30.273,52.734,39.062,19.043,27.832
1687169494.213,31.738,55.664,32.715,41.504,29.785
1687169494.217,45.410,58.594,24.414,73.730,34.668
1687169494.221,40.527,62.988,19.043,81.055,50.293
1687169494.225,47.363,58.594,22.949,85.449,16.602
1687169494.229,47.852,51.270,28.809,76.660,15.625
1687169494.233,44.434,47.852,31.250,65.918,-58.594
1687169494.237,54.688,50.781,26.855,76.660,0.000
1687169494.241,47.852,55.176,22.461,81.543,78.125
1687169494.245,41.016,53.711,24.902,84.473,30.273
1687169494.249,45.410,50.781,25.879,86.914,60.059
1687169494.253,39.551,55.176,23.926,69.336,54.688
1687169494.256,40.039,62.988,21.973,72.266,14.648
1687169494.260,55.664,60.547,21.973,85.938,49.316
1687169494.264,59.082,53.223,23.926,88.867,42.969
1687169494.268,46.875,50.781,29.785,91.797,25.879
1687169494.272,38.086,50.293,36.133,76.660,59.082
1687169494.276,37.598,52.734,37.109,83.008,58.105
1687169494.280,40.527,53.711,38.086,91.309,13.184
1687169494.284,23.926,56.152,38.574,95.215,14.648
1687169494.288,33.203,56.152,36.621,102.539,-19.531
1687169494.292,60.059,56.152,38.574,83.008,-24.902
1687169494.295,47.363,55.176,44.434,58.594,16.113
1687169494.299,41.992,46.875,47.363,78.613,26.367
1687169494.303,39.551,42.969,50.781,99.121,29.297
1687169494.307,32.227,44.434,54.688,92.285,34.180
1687169494.311,27.832,49.805,49.805,75.684,54.688
1687169494.315,19.043,55.176,45.898,65.918,-18.066
1687169494.319,22.949,54.688,44.922,66.406,-43.457
1687169494.323,9.277,54.688,42.480,62.988,38.086
1687169494.327,8.789,58.105,44.434,68.359,41.504
1687169494.331,23.926,64.453,43.457,61.523,2.930
1687169494.335,29.297,67.383,39.551,57.129,16.113
1687169494.338,46.875,64.453,40.527,65.430,4.395
1687169494.342,46.387,60.059,43.457,74.707,17.090
1687169494.346,30.273,56.641,44.922,77.637,14.648
1687169494.350,18.555,57.129,44.922,57.617,6.348
1687169494.354,27.344,59.570,45.898,47.852,85.938
1687169494.358,25.879,62.012,42.480,49.805,129.883
1687169494.362,17.578,60.059,38.574,47.363,49.316
1687169494.366,16.602,58.594,37.598,61.035,3.906
1687169494.370,31.738,58.105,40.527,50.781,86.914
1687169494.374,31.738,55.664,45.410,34.668,114.746
1687169494.378,30.762,62.012,42.969,66.895,64.453
1687169494.381,37.109,67.383,37.598,65.430,16.602
1687169494.385,33.691,62.012,39.551,43.945,-6.836
1687169494.389,32.227,64.453,41.992,42.480,5.859
1687169494.393,39.551,70.801,40.039,33.691,47.852
1687169494.397,49.316,69.824,42.969,20.508,26.855
1687169494.401,42.480,62.500,49.316,25.879,-0.488
1687169494.405,35.156,54.688,52.246,25.391,46.875
1687169494.409,34.668,57.129,50.781,19.043,80.078
1687169494.413,24.902,59.082,47.852,12.207,61.523
1687169494.417,31.250,58.105,53.223,26.367,42.480
1687169494.421,45.410,58.594,51.270,42.480,-18.066
1687169494.424,31.738,57.129,42.969,12.207,-49.316
1687169494.428,23.438,55.664,43.457,20.508,37.109
1687169494.432,19.043,57.617,44.922,56.152,67.383
1687169494.436,20.020,61.035,43.945,47.363,13.184
1687169494.440,30.762,59.570,40.527,38.574,83.496
1687169494.444,16.602,59.082,40.039,36.133,130.859
1687169494.448,12.207,57.617,46.387,30.762,74.707
1687169494.452,27.344,48.828,54.688,29.297,56.152
1687169494.456,30.273,48.340,51.270,15.625,38.574
1687169494.460,24.414,53.711,46.875,15.625,43.457
1687169494.463,33.203,52.734,49.316,31.738,65.430
1687169494.467,38.574,53.223,49.316,16.113,69.336
1687169494.471,36.621,57.617,45.898,-5.859,64.453
1687169494.475,20.996,60.059,47.852,-2.930,44.434
1687169494.479,21.973,61.523,46.875,-2.441,85.938
1687169494.483,31.250,62.012,47.852,-2.441,46.387
1687169494.487,25.879,55.176,52.246,9.277,17.090
1687169494.491,17.578,56.641,48.340,6.348,70.312
1687169494.495,17.578,62.012,41.504,-16.602,105.469
1687169494.499,34.668,62.500,40.527,-2.441,43.945
1687169494.503,36.133,59.082,41.992,20.508,-1.953
1687169494.506,33.203,56.152,41.504,19.043,-17.090
1687169494.510,33.203,60.547,42.480,15.137,-52.734
1687169494.514,29.297,62.012,41.504,-0.488,39.551
1687169494.518,30.762,57.617,37.598,8.789,51.758
1687169494.522,34.668,53.711,33.203,30.273,-6.348
1687169494.526,29.297,54.688,36.133,22.949,-23.926
1687169494.530,17.090,53.711,38.574,18.555,-19.043
1687169494.534,25.879,53.711,32.227,21.484,-13.184
1687169494.538,37.109,54.688,29.297,9.277,60.059
1687169494.542,17.090,56.152,37.598,2.441,46.387
1687169494.545,10.254,56.152,42.969,-3.906,-24.902
1687169494.549,32.227,61.523,38.086,-8.789,13.672
1687169494.553,30.273,59.570,35.156,-3.418,30.273
1687169494.557,31.738,51.758,37.598,1.953,0.977
1687169494.561,47.852,56.641,38.574,4.395,7.812
1687169494.565,44.434,62.012,34.668,0.977,12.207
1687169494.569,52.734,61.523,31.250,-1.953,-17.578
1687169494.573,59.570,60.059,35.156,-5.371,9.277
1687169494.577,54.199,59.082,39.062,-12.207,68.359
1687169494.581,45.898,57.617,39.062,-16.113,40.039
1687169494.585,40.039,58.594,33.691,-14.160,-1.953
1687169494.588,39.551,60.547,30.273,-2.930,16.602
1687169494.592,35.645,65.918,27.832,-4.883,35.156
1687169494.596,49.805,68.848,26.855,0.977,-0.977
1687169494.600,66.895,61.523,32.715,18.066,17.090
1687169494.604,66.406,53.223,39.062,31.738,27.832
1687169494.608,62.500,57.129,37.109,25.391,9.277
1687169494.612,41.992,61.035,34.180,15.625,45.898
1687169494.616,31.250,58.105,31.738,15.625,71.777
1687169494.620,44.434,60.059,24.414,31.250,-4.883
1687169494.624,63.965,56.152,28.809,62.988,-41.016
1687169494.628,50.293,50.781,40.527,60.059,-32.715
1687169494.631,26.855,54.199,37.109,38.086,-13.184
1687169494.635,40.039,54.688,37.598,43.945,70.801
1687169494.639,50.293,54.688,41.504,71.777,25.879
1687169494.643,41.992,58.594,34.180,80.566,11.719
1687169494.647,30.273,57.129,31.250,84.961,28.320
1687169494.651,37.598,53.711,33.203,89.355,38.574
1687169494.655,44.922,49.805,31.250,81.543,16.113
1687169494.659,46.387,53.223,27.344,85.449,-15.625
1687169494.663,59.082,53.711,30.762,91.309,26.855
1687169494.667,36.133,46.875,41.016,76.172,86.914
1687169494.670,20.508,53.223,36.621,62.988,24.902
1687169494.674,33.691,59.570,26.367,63.965,-71.289
1687169494.678,44.922,54.688,36.133,69.336,22.461
1687169494.682,36.133,49.316,43.945,69.824,110.840
1687169494.686,29.785,48.340,43.457,77.148,91.309
1687169494.690,53.223,49.316,45.898,92.773,84.473
1687169494.694,57.617,50.293,46.875,80.566,75.684
1687169494.698,49.316,49.805,48.340,50.781,-1.465
1687169494.702,62.988,48.828,40.527,47.852,1.953
1687169494.706,80.078,55.664,31.250,58.105,63.477
1687169494.710,86.426,59.082,33.203,52.246,74.219
1687169494.713,70.801,56.641,35.156,45.898,53.711
1687169494.717,50.293,59.082,33.691,46.387,31.250
1687169494.721,41.016,56.152,30.762,51.758,-6.836
1687169494.725,47.852,50.293,28.320,50.781,21.973
1687169494.729,48.340,54.688,29.785,62.012,63.477
1687169494.733,33.203,54.688,32.227,61.523,23.926
1687169494.737,30.273,51.758,29.297,53.223,-34.668
1687169494.741,36.621,52.734,28.320,61.523,43.457
1687169494.745,33.203,52.246,37.109,65.918,93.262
1687169494.749,37.109,50.293,35.156,63.965,-6.836
1687169494.753,64.941,45.898,28.809,67.383,-25.391
1687169494.756,58.594,50.293,31.250,60.059,7.324
1687169494.760,43.945,51.270,29.297,60.059,-14.160
1687169494.764,47.363,49.316,28.809,70.312,-31.250
1687169494.768,52.246,50.293,26.855,61.035,0.000
1687169494.772,46.387,46.387,27.832,51.270,45.410
1687169494.776,29.785,44.434,29.297,50.293,15.137
1687169494.780,49.316,46.387,19.043,55.176,-4.395
1687169494.784,52.734,45.410,20.508,57.617,26.855
1687169494.788,39.551,41.992,28.809,61.523,16.113
1687169494.792,48.340,44.434,25.391,63.477,-13.184
1687169494.795,49.316,50.293,19.043,60.059,1.953
1687169494.799,41.504,48.828,18.066,59.570,101.074
1687169494.803,45.410,48.828,28.809,63.965,80.566
1687169494.807,40.039,46.875,26.855,68.359,33.203
1687169494.811,44.922,40.527,22.461,73.730,65.918
1687169494.815,42.480,43.457,26.367,64.453,111.816
1687169494.819,49.805,47.363,27.832,60.547,85.938
1687169494.823,67.383,47.852,24.414,68.359,34.668
1687169494.827,58.594,49.316,19.531,61.035,25.391
1687169494.831,57.129,53.223,25.391,50.781,-25.391
1687169494.835,49.316,54.688,30.762,37.598,-82.520
1687169494.838,40.527,49.316,29.785,33.691,-76.660
1687169494.842,44.434,42.969,27.344,24.902,40.039
1687169494.846,50.781,45.898,24.414,28.809,126.465
1687169494.850,45.898,45.410,27.832,29.297,5.859
1687169494.854,33.691,46.387,30.762,21.973,-2.930
1687169494.858,37.598,48.828,26.855,26.367,48.828
1687169494.862,32.227,48.828,28.320,12.695,56.641
1687169494.866,27.344,50.293,32.227,-1.953,45.898
1687169494.870,33.203,49.316,31.738,-5.859,6.836
1687169494.874,34.668,48.340,33.691,-20.508,11.230
1687169494.878,30.273,53.711,31.250,-33.691,44.922
1687169494.881,33.691,59.082,24.902,-26.855,59.570
1687169494.885,29.785,58.105,25.391,-23.926,29.297
1687169494.889,19.531,54.199,30.762,-23.438,7.812
1687169494.893,22.949,57.129,29.785,-34.668,26.855
1687169494.897,17.090,57.617,30.273,-37.109,32.715
1687169494.901,7.324,47.363,37.109,-20.508,38.086
1687169494.905,22.461,38.574,45.410,-18.066,52.246
1687169494.909,34.180,38.086,49.805,-13.184,27.344
1687169494.913,36.133,49.316,42.480,-6.348,53.711
1687169494.917,39.062,57.617,42.969,-6.348,78.613
1687169494.920,31.250,53.223,49.805,-11.230,54.199
1687169494.924,22.949,49.805,44.434,-12.207,10.254
1687169494.928,25.391,52.734,44.922,-7.324,-7.812
1687169494.932,23.926,55.664,51.270,-27.832,-13.672
1687169494.936,13.184,51.270,53.711,-38.574,35.156
1687169494.940,13.672,52.246,53.711,-21.973,68.848
1687169494.944,27.344,53.223,54.199,-12.695,23.926
1687169494.948,18.066,55.176,54.688,-24.902,5.859
1687169494.952,5.859,54.688,54.199,-29.785,35.645
1687169494.956,10.254,52.246,55.664,-8.301,79.590
1687169494.960,7.812,52.734,58.105,-7.324,80.566
1687169494.963,0.977,50.781,54.688,-10.742,68.848
1687169494.967,-3.906,55.664,50.781,4.883,31.738
1687169494.971,-3.906,55.176,55.176,14.648,12.695
1687169494.975,13.672,54.688,58.594,20.508,-1.465
1687169494.979,6.836,55.176,55.664,17.578,0.000
1687169494.983,0.488,54.199,51.270,16.602,57.129
1687169494.987,10.742,51.758,47.363,22.461,41.992
1687169494.991,9.277,46.875,51.758,17.578,37.598
1687169494.995,11.719,44.922,58.105,14.160,56.152
1687169494.999,-4.883,48.828,50.293,14.160,59.570
1687169495.002,-13.672,55.664,39.551,20.020,67.871
1687169495.006,1.953,57.617,39.551,34.668,56.152
1687169495.010,8.301,53.223,50.293,32.715,77.637
1687169495.014,13.672,50.781,56.152,18.066,69.336
1687169495.018,12.207,51.758,50.781,20.020,52.734
1687169495.022,1.465,53.711,49.316,21.973,31.738
1687169495.026,-5.371,52.734,45.410,3.906,39.062
1687169495.030,-3.418,53.711,36.133,2.441,119.141
1687169495.034,-0.488,58.105,40.039,6.836,46.875
1687169495.038,9.766,56.152,43.945,9.766,-8.789
1687169495.042,15.625,52.734,43.945,18.066,102.539
1687169495.045,10.254,52.734,47.363,15.625,67.383
1687169495.049,20.020,51.758,50.293,15.137,-20.020
1687169495.053,22.949,48.340,52.246,24.902,20.020
1687169495.057,15.625,48.340,54.199,39.062,-10.254
1687169495.061,13.672,51.270,51.758,43.945,17.578
1687169495.065,7.812,49.316,48.828,39.062,8.301
1687169495.069,21.484,52.734,41.016,35.645,-20.996
1687169495.073,26.367,59.570,35.645,32.715,47.852
1687169495.077,21.973,51.270,42.480,28.320,62.012
1687169495.081,33.691,41.504,41.016,32.715,0.000
1687169495.085,22.461,40.039,39.551,37.598,13.184
1687169495.088,5.371,48.340,38.086,24.414,9.766
1687169495.092,16.602,53.711,36.133,9.766,-1.465
1687169495.096,24.414,50.293,38.086,14.648,30.762
1687169495.100,17.578,49.316,33.691,13.184,36.621
1687169495.104,6.348,53.223,34.668,28.320,36.133
1687169495.108,13.184,47.363,37.598,36.133,23.926
1687169495.112,36.621,39.551,39.551,33.691,68.848
1687169495.116,35.645,42.969,41.504,44.434,64.941
1687169495.120,30.762,47.363,39.551,45.410,36.621
1687169495.124,23.926,47.363,38.086,55.176,20.020
1687169495.128,23.926,44.434,40.527,63.477,2.930
1687169495.131,31.738,44.434,43.945,57.617,-25.879
1687169495.135,15.625,46.875,41.016,58.105,10.742
1687169495.139,11.230,46.875,38.086,64.941,82.520
1687169495.143,22.949,45.898,42.480,66.406,49.316
1687169495.147,18.555,43.945,46.387,60.059,57.617
1687169495.151,28.320,37.598,50.781,59.082,60.547
1687169495.155,34.668,40.039,49.805,53.223,16.602
1687169495.159,35.156,52.246,42.480,50.293,24.414
1687169495.163,41.504,54.199,36.621,44.434,-14.648
1687169495.167,29.297,50.781,37.109,35.156,-13.184
1687169495.170,16.113,45.898,44.434,34.668,52.734
1687169495.174,21.484,45.898,46.387,19.531,77.637
1687169495.178,2.441,53.223,42.480,-4.883,47.363
1687169495.182,9.766,49.805,32.227,-8.301,-3.906
1687169495.186,45.410,48.828,25.879,14.160,-13.184
1687169495.190,35.156,48.828,31.738,21.484,24.414
1687169495.194,29.297,43.457,37.598,9.277,41.504
1687169495.198,25.879,40.039,44.922,2.930,17.578
1687169495.202,33.203,36.621,45.410,11.230,-0.488
