timestamps,TP9,AF7,AF8,TP10,Right AUX
1689860540.373,49.805,24.414,45.410,60.547,36.133
1689860540.377,40.039,26.367,46.875,60.547,14.160
1689860540.381,43.945,26.855,49.805,56.152,33.691
1689860540.385,54.688,25.391,50.781,53.711,16.602
1689860540.388,62.500,26.855,54.199,64.453,-10.742
1689860540.392,64.453,27.832,54.688,75.195,-3.418
1689860540.396,52.734,28.809,52.734,65.918,-7.812
1689860540.400,41.016,28.320,55.664,48.340,28.809
1689860540.404,44.434,26.367,50.781,42.480,66.406
1689860540.408,50.293,27.344,47.852,50.781,46.875
1689860540.412,47.363,28.320,46.875,51.270,50.781
1689860540.416,37.598,28.809,41.992,40.527,54.688
1689860540.420,29.785,26.367,41.504,27.344,21.973
1689860540.424,28.809,27.344,40.527,27.344,3.906
1689860540.428,40.039,34.668,34.668,41.504,54.688
1689860540.431,45.410,37.109,30.762,47.363,19.043
1689860540.435,44.922,42.969,35.156,51.270,0.000
1689860540.439,36.621,45.410,40.527,46.875,48.340
1689860540.443,15.625,41.992,40.039,38.574,23.438
1689860540.447,37.109,45.410,39.551,42.480,55.176
1689860540.451,47.852,45.898,41.016,41.016,73.242
1689860540.455,21.973,40.527,41.016,39.551,35.156
1689860540.459,17.090,39.062,41.016,29.785,-39.551
1689860540.463,31.250,41.016,36.133,27.832,0.977
1689860540.467,53.711,40.039,30.762,39.551,59.570
1689860540.471,56.152,40.039,32.715,46.387,23.926
1689860540.474,47.852,44.434,35.156,43.945,45.898
1689860540.478,39.551,45.410,38.574,33.691,51.270
1689860540.482,36.621,42.480,41.992,31.250,44.922
1689860540.486,47.852,39.062,41.504,34.180,21.973
1689860540.490,59.570,40.527,36.621,44.434,50.293
1689860540.494,62.500,41.992,36.133,48.828,55.176
1689860540.498,55.176,38.574,42.480,48.828,77.148
1689860540.502,48.340,37.598,41.016,43.457,34.180
1689860540.506,56.641,38.086,37.109,33.691,-40.527
1689860540.510,61.035,36.133,41.992,42.480,-12.207
1689860540.514,56.152,35.645,42.969,54.199,39.551
1689860540.517,46.875,32.715,43.457,42.969,38.086
1689860540.521,42.969,30.273,46.387,30.273,46.875
1689860540.525,46.387,29.785,45.898,36.621,15.625
1689860540.529,46.387,26.855,48.828,43.457,14.648
1689860540.533,42.480,25.879,48.828,49.316,64.453
1689860540.537,32.715,25.879,48.340,37.109,62.500
1689860540.541,26.367,27.832,47.363,24.414,21.973
1689860540.545,29.785,29.785,40.039,21.484,-50.781
1689860540.549,35.645,28.809,36.621,31.250,18.066
1689860540.553,28.809,29.297,39.551,37.109,38.574
1689860540.556,14.160,33.691,38.086,32.715,15.137
1689860540.560,9.277,33.203,39.062,33.691,41.504
1689860540.564,17.578,33.691,41.992,32.227,-2.930
1689860540.568,33.203,37.109,40.527,37.598,18.555
1689860540.572,40.527,36.621,41.016,52.734,60.547
1689860540.576,28.809,36.133,43.457,42.969,44.922
1689860540.580,8.789,37.109,42.480,28.320,10.254
1689860540.584,16.113,37.598,41.992,22.949,36.621
1689860540.588,36.133,38.574,41.504,28.320,24.902
1689860540.592,39.062,39.062,41.992,39.551,45.898
1689860540.596,33.691,39.062,40.527,36.621,38.086
1689860540.599,26.367,43.457,36.133,30.762,-10.254
1689860540.603,33.203,44.922,35.156,31.738,-1.953
1689860540.607,52.246,39.551,37.109,46.387,13.672
1689860540.611,63.965,38.574,38.574,58.594,48.340
1689860540.615,54.199,40.039,38.574,49.316,44.922
1689860540.619,42.480,39.551,37.598,38.086,8.301
1689860540.623,36.621,36.133,36.621,40.527,14.648
1689860540.627,49.805,35.156,36.133,43.945,58.594
1689860540.631,62.012,39.062,33.203,44.922,7.812
1689860540.635,45.898,38.574,29.297,43.457,17.578
1689860540.638,29.785,38.574,28.809,38.574,30.762
1689860540.642,23.926,40.039,26.855,36.133,-51.270
1689860540.646,35.645,37.598,22.949,40.039,-42.969
1689860540.650,43.457,37.109,25.879,42.969,28.809
1689860540.654,37.109,40.039,30.762,47.363,41.504
1689860540.658,25.879,41.016,32.715,50.293,-8.789
1689860540.662,20.996,37.109,35.156,42.969,-11.719
1689860540.666,32.715,33.691,36.621,42.480,20.996
1689860540.670,42.969,34.668,33.691,54.688,-12.695
1689860540.674,41.016,31.738,33.203,59.082,16.602
1689860540.678,35.645,33.691,34.668,58.105,79.590
1689860540.681,33.203,35.156,37.109,48.340,75.684
1689860540.685,45.410,34.180,37.109,44.922,55.176
1689860540.689,60.547,36.133,35.156,58.594,73.242
1689860540.693,64.453,38.086,36.621,63.477,70.312
1689860540.697,53.223,37.109,32.715,56.152,28.809
1689860540.701,46.387,33.691,33.203,49.805,-0.977
1689860540.705,58.594,34.668,33.203,47.852,3.906
1689860540.709,77.148,36.621,26.367,62.988,56.641
1689860540.713,74.219,36.133,26.855,66.895,31.250
1689860540.717,57.129,30.273,32.227,59.082,2.930
1689860540.721,68.848,22.461,36.621,77.148,20.996
1689860540.724,86.426,25.879,41.504,88.379,-5.859
1689860540.728,61.035,36.621,32.715,51.758,10.254
1689860540.732,38.574,38.574,15.625,21.973,-1.465
1689860540.736,33.203,38.086,13.672,22.949,-49.805
1689860540.740,25.391,35.156,19.531,19.043,-0.977
1689860540.744,35.156,30.273,25.879,18.555,5.371
1689860540.748,49.805,29.297,26.367,24.414,15.625
1689860540.752,50.293,28.809,27.832,33.203,67.383
1689860540.756,42.480,25.879,32.715,33.203,73.730
1689860540.760,38.574,24.902,30.273,20.020,18.555
1689860540.763,42.969,26.367,28.320,20.020,18.066
1689860540.767,59.570,27.344,32.715,36.621,65.430
1689860540.771,57.129,30.273,36.133,39.551,83.496
1689860540.775,43.945,29.785,33.203,43.945,97.656
1689860540.779,37.109,27.344,32.715,40.039,50.781
1689860540.783,39.551,28.320,33.691,35.156,44.922
1689860540.787,56.152,29.297,30.762,43.457,0.488
1689860540.791,60.059,29.785,28.809,55.664,5.859
1689860540.795,55.664,31.738,27.832,56.152,19.043
1689860540.799,45.410,32.227,28.809,47.363,1.465
1689860540.803,39.551,30.273,31.250,44.434,39.062
1689860540.806,56.152,27.832,33.691,56.641,14.648
1689860540.810,69.336,29.297,34.668,63.477,-0.977
1689860540.814,60.059,30.273,35.645,62.500,3.906
1689860540.818,48.828,30.762,34.180,62.500,21.484
1689860540.822,47.363,32.227,33.691,52.734,80.078
1689860540.826,53.711,31.738,37.109,52.734,64.453
1689860540.830,59.082,31.738,39.551,60.547,39.062
1689860540.834,54.199,29.785,39.062,66.895,68.359
1689860540.838,40.039,28.809,36.621,56.641,50.293
1689860540.842,35.645,32.227,36.133,44.922,7.812
1689860540.846,47.852,36.133,38.086,55.664,13.184
1689860540.849,53.223,35.645,37.598,68.848,67.871
1689860540.853,52.734,33.203,35.156,64.941,39.551
1689860540.857,37.598,33.203,34.668,51.758,32.715
1689860540.861,26.367,33.203,38.574,40.527,43.945
1689860540.865,41.504,31.250,31.738,33.691,-12.695
1689860540.869,57.617,28.809,27.344,38.574,-48.340
1689860540.873,55.664,28.320,33.691,49.316,29.785
1689860540.877,42.480,28.320,37.598,47.363,33.203
1689860540.881,37.598,27.344,38.086,36.133,-61.035
1689860540.885,44.434,24.414,38.086,36.621,-12.695
1689860540.888,51.270,22.461,34.668,46.387,74.219
1689860540.892,51.758,26.855,33.203,57.617,90.332
1689860540.896,41.992,25.879,37.109,52.734,29.785
1689860540.900,26.367,23.926,35.645,37.598,-16.602
1689860540.904,24.902,27.344,35.645,34.668,-46.875
1689860540.908,39.062,25.879,41.504,49.805,27.832
1689860540.912,41.992,25.879,41.504,61.035,88.379
1689860540.916,36.133,27.344,38.574,50.781,59.082
1689860540.920,31.738,25.391,39.551,41.504,-17.578
1689860540.924,36.621,24.902,40.039,39.062,-22.949
1689860540.928,56.152,25.879,41.992,50.781,16.602
1689860540.931,64.453,23.438,44.434,62.988,62.988
1689860540.935,55.664,24.414,44.922,62.500,22.949
1689860540.939,46.875,26.367,47.363,53.223,-7.324
1689860540.943,52.734,27.344,47.363,44.434,-11.230
1689860540.947,68.359,27.344,44.922,51.270,-11.719
1689860540.951,72.754,26.367,42.969,59.570,-21.484
1689860540.955,68.848,29.297,37.598,63.477,-58.594
1689860540.959,72.754,27.344,38.086,69.824,10.254
1689860540.963,63.477,24.902,42.969,59.570,41.016
1689860540.967,57.617,29.785,37.598,41.016,68.848
1689860540.970,52.246,35.645,29.785,24.414,19.531
1689860540.974,38.086,31.738,35.645,25.391,-22.949
1689860540.978,35.156,27.344,40.527,35.156,62.988
1689860540.982,32.227,25.879,41.016,29.785,68.848
1689860540.986,41.016,23.926,41.992,30.762,13.184
1689860540.990,56.641,26.855,38.574,42.969,28.809
1689860540.994,52.734,27.344,36.133,45.898,56.152
1689860540.998,38.574,28.809,38.574,40.527,40.039
1689860541.002,35.156,33.203,41.992,39.551,-1.953
1689860541.006,48.828,31.738,44.434,37.598,22.949
1689860541.010,61.035,30.762,40.527,44.434,23.926
1689860541.013,57.129,33.691,41.504,46.387,15.625
1689860541.017,43.945,37.109,42.969,28.809,-4.883
1689860541.021,33.691,35.645,41.504,20.020,-19.043
1689860541.025,49.316,31.738,43.945,27.344,-9.766
1689860541.029,61.035,28.320,43.457,34.180,-20.996
1689860541.033,46.387,28.809,43.945,34.180,17.578
1689860541.037,32.715,31.738,42.480,24.902,24.902
1689860541.041,28.809,31.250,41.016,20.508,-24.902
1689860541.045,39.551,30.273,40.039,23.438,36.133
1689860541.049,43.457,30.762,37.109,26.855,149.414
1689860541.053,33.691,31.250,34.668,27.832,116.699
1689860541.056,21.484,30.762,37.109,22.949,36.133
1689860541.060,15.137,30.273,39.062,13.672,42.969
1689860541.064,24.414,27.832,38.086,6.348,49.316
1689860541.068,25.879,24.414,36.133,14.648,20.020
1689860541.072,18.066,21.973,31.738,21.973,31.738
1689860541.076,8.301,19.043,32.227,11.230,28.809
1689860541.080,-3.418,22.949,36.133,5.859,10.742
1689860541.084,-1.953,25.879,40.039,5.859,14.648
1689860541.088,15.137,24.902,40.039,17.578,38.086
1689860541.092,19.531,27.344,41.504,31.250,23.926
1689860541.095,5.371,31.738,43.457,26.855,15.137
1689860541.099,-6.348,31.738,41.992,13.184,-46.875
1689860541.103,-2.930,30.273,44.922,-0.488,-22.461
1689860541.107,7.812,31.738,40.039,6.348,35.156
1689860541.111,-2.441,28.809,37.109,18.555,55.664
1689860541.115,-18.555,24.414,40.527,20.508,25.391
1689860541.119,-28.809,26.367,37.598,9.766,36.133
1689860541.123,-35.156,27.344,35.645,-5.371,33.691
1689860541.127,-29.297,24.902,36.621,4.395,-11.230
1689860541.131,-23.926,26.855,38.086,20.508,31.738
1689860541.135,-33.691,27.344,41.016,13.672,37.598
1689860541.138,-39.551,32.227,40.039,5.371,-26.367
1689860541.142,-35.156,34.668,37.598,1.953,-16.602
1689860541.146,-22.461,31.738,38.086,8.301,41.992
1689860541.150,-15.137,33.203,35.156,18.066,19.531
1689860541.154,-21.484,35.156,37.109,16.602,-82.520
1689860541.158,-30.273,30.762,41.016,10.254,-56.641
1689860541.162,-29.785,25.879,38.086,3.906,16.602
1689860541.166,-13.672,24.902,37.109,8.789,21.484
1689860541.170,1.465,23.926,42.969,23.926,-2.930
1689860541.174,0.000,23.438,45.898,27.832,-63.965
1689860541.177,-5.859,23.438,49.316,23.926,-33.203
1689860541.181,-9.766,24.414,50.293,8.301,40.527
1689860541.185,1.465,25.391,48.340,3.906,64.453
1689860541.189,11.719,25.879,48.828,20.020,34.668
1689860541.193,0.977,25.879,49.316,19.043,14.648
1689860541.197,-5.371,23.438,50.293,12.695,-15.625
1689860541.201,-1.953,25.391,49.805,5.859,-29.297
1689860541.205,8.789,29.785,48.340,9.277,-41.992
1689860541.209,15.625,27.832,45.898,25.879,-3.418
1689860541.213,20.996,26.855,44.434,32.715,33.691
1689860541.217,23.926,28.809,44.922,32.227,5.859
1689860541.220,20.996,30.273,45.898,21.484,8.301
1689860541.224,26.367,26.367,44.922,23.926,50.781
1689860541.228,42.480,24.902,42.969,43.457,50.781
1689860541.232,44.922,24.902,41.992,45.898,-34.668
1689860541.236,24.902,21.484,43.457,38.574,-32.227
1689860541.240,14.648,22.949,42.969,28.320,-9.277
1689860541.244,28.809,25.391,42.969,26.855,32.227
1689860541.248,45.410,27.344,40.039,44.434,38.086
1689860541.252,46.387,28.809,38.574,54.688,88.867
1689860541.256,39.062,29.785,35.645,52.734,86.426
1689860541.260,25.879,29.785,31.738,41.016,43.945
1689860541.263,27.344,28.320,31.250,37.109,80.078
1689860541.267,57.617,32.227,27.344,56.641,70.312
1689860541.271,70.312,31.738,33.203,70.801,39.551
1689860541.275,36.133,27.832,44.434,50.293,4.883
1689860541.279,23.438,22.461,43.945,29.297,-32.227
1689860541.283,44.434,16.602,43.457,39.062,-1.953
1689860541.287,65.918,20.508,43.945,62.500,-18.066
1689860541.291,73.242,20.996,44.922,69.824,-11.719
1689860541.295,56.152,17.090,47.852,61.035,41.016
1689860541.299,43.457,22.949,43.945,50.293,57.129
1689860541.302,49.805,25.391,39.551,45.410,26.855
1689860541.306,71.777,20.996,43.945,58.594,-19.531
1689860541.310,74.707,22.461,41.504,70.801,-28.809
1689860541.314,68.359,24.902,39.062,78.125,27.832
1689860541.318,71.777,25.391,40.527,70.312,43.945
1689860541.322,70.801,27.832,40.527,60.547,29.297
1689860541.326,77.148,30.273,39.551,68.359,-6.836
1689860541.330,81.543,30.762,37.109,78.125,-24.414
1689860541.334,72.754,33.691,35.156,82.031,42.969
1689860541.338,63.477,36.133,33.203,64.941,74.707
1689860541.342,56.641,36.621,36.621,47.852,48.340
1689860541.345,64.453,36.621,33.691,55.664,41.504
1689860541.349,77.148,33.203,26.855,62.988,15.625
1689860541.353,76.172,32.227,27.344,65.430,16.113
1689860541.357,63.477,32.715,28.320,55.176,2.930
1689860541.361,54.199,32.227,28.320,43.457,42.969
1689860541.365,65.430,33.203,29.785,50.293,123.047
1689860541.369,73.242,35.156,31.738,66.895,54.199
1689860541.373,70.312,33.691,30.762,75.684,11.719
1689860541.377,61.035,30.273,33.203,66.406,90.820
1689860541.381,58.105,30.273,32.227,57.617,67.383
1689860541.385,66.406,32.715,32.227,60.547,6.836
1689860541.388,73.730,31.250,32.715,71.289,69.336
1689860541.392,77.148,31.250,31.738,73.730,88.867
1689860541.396,73.242,33.691,36.133,64.941,8.789
1689860541.400,63.477,28.809,40.527,56.641,-14.160
1689860541.404,62.500,25.879,41.016,65.430,-41.016
1689860541.408,74.707,26.855,43.457,77.148,-32.227
1689860541.412,85.449,21.484,45.410,80.078,45.898
1689860541.416,75.195,20.020,47.363,71.289,44.434
1689860541.420,63.965,21.484,47.852,55.176,37.598
1689860541.424,74.707,22.949,47.363,54.688,28.320
1689860541.427,85.449,20.996,48.828,64.941,-14.160
1689860541.431,83.496,19.531,48.828,69.824,1.953
1689860541.435,68.848,21.973,45.898,62.012,40.039
1689860541.439,50.293,23.926,41.504,47.852,30.273
1689860541.443,50.781,26.855,40.527,49.316,-16.113
1689860541.447,63.965,25.391,36.133,59.570,9.277
1689860541.451,67.383,24.414,32.227,64.453,45.898
1689860541.455,64.453,27.344,36.621,66.895,32.715
1689860541.459,58.594,26.855,36.621,59.082,-7.324
1689860541.463,57.129,28.320,34.668,57.129,20.020
1689860541.467,67.871,28.809,38.086,65.918,93.750
1689860541.470,73.730,24.902,37.109,76.172,101.562
1689860541.474,66.406,27.832,36.133,72.266,121.582
1689860541.478,54.199,28.320,38.086,60.547,89.355
1689860541.482,53.223,25.391,35.645,57.617,3.906
1689860541.486,72.266,25.879,31.738,68.359,-0.977
1689860541.490,78.613,27.344,29.297,79.102,35.645
1689860541.494,64.453,25.879,31.738,74.219,15.137
1689860541.498,48.828,23.438,33.203,59.082,35.156
1689860541.502,38.574,21.484,33.691,47.852,34.668
1689860541.506,48.828,22.949,37.598,46.387,30.273
1689860541.510,57.617,19.531,42.480,50.781,43.945
1689860541.513,47.363,19.043,42.480,52.246,-15.137
1689860541.517,32.227,19.531,41.504,45.898,11.230
1689860541.521,23.926,19.043,39.551,36.133,65.918
1689860541.525,39.062,21.484,38.086,38.086,99.121
1689860541.529,59.570,23.926,37.598,51.758,57.129
1689860541.533,55.176,25.391,36.621,56.152,10.254
1689860541.537,46.875,26.855,35.156,49.805,29.785
1689860541.541,44.434,29.297,34.668,41.504,82.031
1689860541.545,60.059,29.785,36.133,43.945,65.918
1689860541.549,72.266,31.738,36.621,53.711,18.066
1689860541.552,73.730,31.738,38.086,62.500,22.949
1689860541.556,68.359,29.297,41.992,64.453,25.879
1689860541.560,54.199,28.320,40.527,52.246,-19.531
1689860541.564,63.477,29.297,36.621,56.152,-45.898
1689860541.568,78.613,30.273,33.203,69.336,12.695
1689860541.572,81.543,31.738,32.715,72.266,93.262
1689860541.576,75.684,32.715,36.621,64.941,82.031
1689860541.580,61.035,33.203,43.457,57.129,39.551
1689860541.584,61.035,34.180,44.434,54.688,77.637
1689860541.588,76.660,32.227,43.945,61.035,88.379
1689860541.592,78.125,28.809,46.875,63.965,28.809
1689860541.595,67.383,28.809,44.434,60.547,-10.254
1689860541.599,59.082,33.203,41.992,53.711,-20.508
1689860541.603,62.500,36.133,42.969,50.781,8.789
1689860541.607,75.684,34.668,40.527,58.105,18.066
1689860541.611,90.332,34.668,31.738,76.172,-1.465
1689860541.615,83.984,35.156,32.715,78.613,-5.859
1689860541.619,41.504,27.344,44.922,45.898,3.418
1689860541.623,30.273,22.949,46.875,31.250,13.184
1689860541.627,60.547,19.531,45.898,52.246,41.992
1689860541.631,76.172,17.090,44.922,63.965,12.207
1689860541.634,74.219,20.020,42.480,61.523,5.859
1689860541.638,61.523,23.438,41.504,51.270,55.664
1689860541.642,50.781,27.344,38.086,39.062,37.109
1689860541.646,66.406,27.344,35.645,42.969,36.133
1689860541.650,75.684,26.855,34.180,51.758,70.312
1689860541.654,65.430,27.344,33.691,48.340,23.438
1689860541.658,55.176,28.320,34.180,41.016,-26.367
1689860541.662,48.828,26.367,37.598,34.180,-12.207
1689860541.666,58.105,20.508,39.062,37.109,-20.508
1689860541.670,62.988,22.949,35.645,53.711,40.527
1689860541.674,52.246,23.926,35.645,56.641,63.965
1689860541.677,44.922,23.438,36.133,48.340,14.648
1689860541.681,35.156,25.391,37.598,43.457,35.156
1689860541.685,45.898,25.391,41.992,41.504,18.066
1689860541.689,67.871,25.879,42.480,59.570,24.902
1689860541.693,68.359,25.879,41.504,65.430,33.203
1689860541.697,54.688,26.855,41.016,54.199,-26.855
1689860541.701,44.922,27.832,42.480,42.969,2.930
1689860541.705,54.199,26.367,41.016,44.434,65.430
1689860541.709,70.312,27.832,36.133,60.547,64.453
1689860541.713,73.242,29.785,35.645,62.988,8.789
1689860541.717,61.035,29.297,37.109,53.711,18.066
1689860541.720,51.270,28.809,40.039,42.480,28.320
1689860541.724,57.129,27.344,37.598,37.109,54.688
1689860541.728,70.312,25.391,35.645,48.340,91.309
1689860541.732,72.754,26.855,36.133,58.594,48.828
1689860541.736,61.035,28.320,37.598,51.758,-9.766
1689860541.740,48.340,24.902,36.621,37.109,-18.066
1689860541.744,47.363,23.438,36.133,38.086,62.500
1689860541.748,57.129,27.344,37.109,52.734,60.059
1689860541.752,54.688,29.785,34.668,53.223,21.484
1689860541.756,43.945,28.809,33.203,43.945,32.227
1689860541.759,36.133,30.273,34.668,38.086,8.789
1689860541.763,38.086,31.738,37.598,32.715,31.250
1689860541.767,56.152,27.832,37.109,37.109,15.625
1689860541.771,59.570,26.367,34.180,47.363,5.371
1689860541.775,48.340,27.832,36.133,45.898,41.016
1689860541.779,40.527,26.855,37.598,34.668,23.438
1689860541.783,41.016,23.926,36.133,27.832,-3.418
1689860541.787,53.223,22.949,32.715,33.203,84.961
1689860541.791,56.641,22.949,30.762,45.898,119.141
1689860541.795,44.922,21.973,33.691,44.922,61.035
1689860541.799,36.621,24.414,33.691,36.621,29.297
1689860541.802,40.039,26.855,31.738,38.086,11.230
1689860541.806,55.176,24.902,35.645,48.828,-4.883
1689860541.810,62.500,24.414,41.504,59.082,30.273
1689860541.814,55.664,24.414,41.992,58.105,-10.742
1689860541.818,45.410,23.438,41.992,49.805,-41.992
1689860541.822,41.016,28.809,40.039,45.410,21.484
1689860541.826,50.781,27.832,38.086,51.270,-8.301
1689860541.830,58.594,25.879,40.527,58.594,14.160
1689860541.834,50.293,26.855,40.527,53.223,74.219
1689860541.838,32.715,25.879,37.109,37.598,16.602
1689860541.842,26.855,27.832,37.598,28.320,-64.453
1689860541.845,41.992,29.297,37.109,36.133,-31.738
1689860541.849,49.805,27.832,36.621,44.922,15.137
1689860541.853,36.621,26.855,38.086,44.922,-37.109
1689860541.857,29.297,28.809,37.109,38.574,21.973
1689860541.861,27.344,29.297,35.645,29.297,96.191
1689860541.865,34.668,27.344,34.668,29.297,59.082
1689860541.869,44.922,24.414,34.180,40.527,6.348
1689860541.873,42.480,25.391,33.203,43.945,88.867
1689860541.877,28.809,22.461,33.691,36.133,48.340
1689860541.881,19.531,19.043,34.668,26.367,20.996
1689860541.884,27.344,19.531,32.715,28.809,75.195
1689860541.888,37.598,16.602,34.180,40.039,58.594
1689860541.892,39.062,18.066,33.691,46.875,30.762
1689860541.896,31.738,20.020,34.668,43.945,-0.488
1689860541.900,36.621,21.484,32.715,42.969,51.758
1689860541.904,48.340,25.879,32.715,51.758,61.035
1689860541.908,32.715,24.414,44.922,41.016,26.367
1689860541.912,17.090,18.555,44.922,35.645,5.859
1689860541.916,17.578,15.137,43.457,42.969,19.043
1689860541.920,25.879,16.602,42.480,42.969,35.156
1689860541.924,41.992,20.508,41.016,52.734,15.137
1689860541.927,50.293,20.508,40.039,56.152,0.977
1689860541.931,49.805,23.926,33.691,56.641,3.906
1689860541.935,37.598,24.414,34.180,57.617,83.496
1689860541.939,24.414,20.996,37.109,46.875,75.195
1689860541.943,27.832,22.461,36.133,42.969,7.812
1689860541.947,47.363,21.973,37.598,55.664,41.992
1689860541.951,54.688,22.461,39.062,62.988,52.246
1689860541.955,43.457,23.438,38.086,56.152,34.180
1689860541.959,31.250,22.949,37.598,46.875,43.945
1689860541.963,35.156,24.902,38.574,44.434,53.223
1689860541.967,48.340,20.996,36.133,44.922,-59.082
1689860541.970,50.293,20.020,30.273,51.270,-35.156
1689860541.974,45.410,22.461,30.273,52.246,7.324
1689860541.978,35.645,21.973,35.156,44.922,-22.461
1689860541.982,34.668,22.949,32.715,36.621,-68.848
1689860541.986,46.387,26.367,33.691,39.551,-33.203
1689860541.990,52.246,25.879,37.598,48.828,34.180
1689860541.994,47.363,25.391,36.133,48.340,12.695
1689860541.998,40.039,27.344,39.551,41.992,-6.836
1689860542.002,33.691,25.879,39.551,29.785,-5.859
1689860542.006,41.504,21.973,36.133,26.367,35.645
1689860542.009,52.246,24.414,34.180,41.016,23.926
1689860542.013,46.875,25.391,33.691,45.410,17.578
1689860542.017,36.133,23.438,35.645,35.156,28.809
1689860542.021,31.250,26.855,33.203,27.832,83.984
1689860542.025,40.039,25.391,32.715,31.250,50.293
1689860542.029,53.223,20.508,35.156,42.969,-11.719
1689860542.033,49.316,23.438,34.180,45.898,29.785
1689860542.037,37.598,26.367,33.691,39.062,37.598
1689860542.041,33.203,28.320,34.668,30.273,14.160
1689860542.045,39.062,25.879,35.645,30.762,25.391
1689860542.049,48.828,25.879,34.180,37.109,47.852
1689860542.052,49.316,29.297,35.645,41.504,59.570
1689860542.056,41.504,30.273,35.156,35.645,32.227
1689860542.060,36.133,29.785,33.203,25.391,81.543
1689860542.064,45.410,29.297,35.645,23.438,118.164
1689860542.068,59.570,28.809,35.645,31.738,41.016
1689860542.072,64.941,31.250,33.203,43.945,17.090
1689860542.076,55.664,33.691,35.156,41.504,38.574
1689860542.080,40.527,31.250,33.691,33.203,16.113
1689860542.084,42.480,31.250,33.691,31.738,2.441
1689860542.088,54.199,32.715,39.551,42.969,-4.395
1689860542.092,54.199,29.297,42.480,56.152,21.973
1689860542.095,41.504,24.902,42.969,44.434,14.160
1689860542.099,31.738,27.832,42.480,25.879,-42.480
1689860542.103,36.621,32.227,40.527,27.832,-37.109
1689860542.107,46.387,28.809,38.086,42.969,28.809
1689860542.111,48.340,27.344,39.062,51.270,39.062
1689860542.115,44.434,30.762,40.039,48.340,56.152
1689860542.119,31.250,32.227,41.016,40.039,76.172
1689860542.123,26.855,28.809,41.016,28.320,42.969
1689860542.127,41.992,24.902,40.039,42.480,35.156
1689860542.131,55.176,26.855,41.504,66.406,-3.906
1689860542.134,48.340,28.809,41.504,57.129,21.973
1689860542.138,33.203,28.809,39.551,37.109,-10.742
1689860542.142,35.645,28.320,37.598,34.180,-39.062
1689860542.146,50.781,28.809,34.668,51.758,0.977
1689860542.150,54.199,30.273,34.668,63.965,27.344
1689860542.154,45.410,33.691,36.621,60.059,43.457
1689860542.158,34.180,33.203,36.621,50.293,25.879
1689860542.162,32.227,35.156,38.086,44.434,37.598
1689860542.166,44.922,34.668,34.180,49.316,16.602
1689860542.170,49.805,31.738,32.715,60.059,-27.832
1689860542.174,47.852,31.738,36.621,66.895,76.660
1689860542.177,35.645,30.273,38.086,48.340,115.234
1689860542.181,20.996,27.832,35.645,31.738,30.273
1689860542.185,35.645,28.320,35.645,42.480,-4.395
1689860542.189,53.223,30.273,38.086,53.223,19.531
1689860542.193,49.316,29.785,37.598,55.664,32.715
1689860542.197,38.086,28.809,40.039,50.293,37.109
1689860542.201,34.668,28.809,41.992,32.715,45.898
1689860542.205,40.527,28.809,40.039,35.645,19.531
1689860542.209,48.340,27.344,40.039,50.293,-2.930
1689860542.213,44.922,28.320,38.086,46.387,-11.230
1689860542.216,34.668,28.809,34.668,40.039,0.000
1689860542.220,26.855,25.879,34.668,29.785,29.785
1689860542.224,30.762,24.902,36.133,29.297,24.902
1689860542.228,43.457,24.902,36.133,42.969,43.457
1689860542.232,48.340,24.414,38.574,48.828,24.414
1689860542.236,40.039,23.926,40.039,46.875,-10.254
1689860542.240,30.762,25.391,37.109,45.898,19.531
1689860542.244,40.039,28.809,37.109,49.316,46.875
1689860542.248,54.688,30.273,38.086,53.223,63.477
1689860542.252,57.129,30.762,33.203,53.223,26.855
1689860542.256,56.152,29.297,26.855,47.363,53.711
1689860542.259,53.223,31.250,24.902,38.574,43.457
1689860542.263,44.922,35.156,29.297,30.762,-0.977
1689860542.267,51.270,33.691,33.691,37.598,-18.555
1689860542.271,63.965,32.227,32.715,52.246,-58.594
1689860542.275,54.199,31.250,33.691,51.270,-33.203
1689860542.279,51.758,32.715,36.133,45.410,25.391
1689860542.283,59.082,35.645,32.715,44.434,75.195
1689860542.287,68.359,35.156,29.297,52.734,55.176
1689860542.291,71.777,32.227,28.320,60.547,-11.230
1689860542.295,61.035,29.785,33.203,58.105,-0.488
1689860542.299,48.340,29.785,36.621,48.828,41.504
1689860542.302,44.922,31.738,33.691,40.527,-12.695
1689860542.306,58.594,34.180,33.203,39.062,-36.133
1689860542.310,67.871,34.180,35.156,47.363,-23.438
1689860542.314,58.594,31.738,34.180,54.688,-36.621
1689860542.318,42.969,28.809,31.250,41.992,14.648
1689860542.322,41.992,28.809,31.738,29.785,-18.066
1689860542.326,56.152,29.785,31.250,44.434,-35.645
1689860542.330,59.570,29.297,36.133,57.617,36.621
1689860542.334,52.246,29.297,39.062,55.176,71.289
1689860542.338,48.340,31.250,34.668,40.527,41.504
1689860542.341,47.363,32.715,37.109,36.133,8.789
1689860542.345,59.082,33.203,41.504,47.363,18.066
1689860542.349,67.871,30.273,40.039,55.176,14.648
1689860542.353,64.453,29.297,38.574,56.641,22.949
1689860542.357,52.246,29.297,38.086,49.805,37.109
1689860542.361,38.086,26.367,40.039,36.133,18.066
1689860542.365,45.898,25.879,40.527,39.062,17.578
1689860542.369,58.105,23.438,41.016,53.223,-2.441
1689860542.373,50.293,21.973,41.992,53.223,1.953
1689860542.377,32.715,20.508,43.945,38.086,72.266
1689860542.381,28.320,20.508,44.922,27.832,34.668
1689860542.384,41.992,21.973,44.922,33.203,-0.977
1689860542.388,49.805,22.461,44.434,48.828,29.297
1689860542.392,47.852,24.902,45.898,59.570,44.922
1689860542.396,43.945,27.832,47.363,55.176,71.777
1689860542.400,32.715,25.879,46.387,38.574,71.777
1689860542.404,35.156,23.926,43.457,31.738,34.668
1689860542.408,50.293,25.391,41.992,47.363,1.953
1689860542.412,55.664,26.855,42.480,59.082,21.973
1689860542.416,46.387,27.832,42.969,50.781,26.855
1689860542.420,35.645,31.250,44.434,38.574,31.250
1689860542.424,42.969,29.297,40.527,40.039,45.898
1689860542.427,54.199,26.367,36.621,42.480,64.941
1689860542.431,54.199,26.367,37.598,48.340,67.383
1689860542.435,41.992,25.391,41.016,47.852,-38.574
1689860542.439,24.902,26.855,41.504,30.273,-28.809
1689860542.443,26.367,25.879,37.598,26.367,32.227
1689860542.447,41.992,23.926,38.574,37.598,-21.484
1689860542.451,42.969,25.391,39.551,43.457,-25.391
1689860542.455,31.738,27.832,41.504,36.621,59.082
1689860542.459,24.902,27.344,42.480,26.855,114.258
1689860542.463,34.668,27.344,40.039,31.738,23.926
1689860542.466,52.734,27.344,42.480,43.945,30.273
1689860542.470,61.035,33.691,42.969,55.664,53.711
1689860542.474,50.781,36.133,41.504,52.734,55.176
1689860542.478,40.527,32.227,42.969,43.457,41.504
1689860542.482,38.574,29.785,41.504,38.574,-0.488
1689860542.486,48.828,25.879,40.039,41.992,-12.695
1689860542.490,58.594,24.414,36.621,52.246,-20.996
1689860542.494,51.270,24.902,34.180,45.898,-12.207
1689860542.498,39.062,24.414,40.527,34.668,-16.602
1689860542.502,34.668,22.461,43.457,28.320,-56.152
1689860542.506,47.852,23.926,42.969,33.691,12.695
1689860542.509,59.082,24.414,43.945,49.316,35.156
1689860542.513,55.664,20.508,45.410,51.758,3.418
1689860542.517,48.828,23.926,41.504,42.969,23.438
1689860542.521,42.969,28.320,37.109,36.621,-2.930
1689860542.525,49.805,26.855,36.133,44.434,26.855
1689860542.529,59.570,30.762,34.668,54.199,22.949
1689860542.533,54.688,30.273,35.645,52.734,9.277
1689860542.537,41.016,30.273,36.621,47.363,-9.277
1689860542.541,38.086,34.180,35.645,39.062,-41.016
1689860542.545,53.223,31.738,39.551,43.945,11.719
1689860542.549,64.941,31.250,41.992,62.012,39.551
1689860542.552,54.199,30.762,38.086,57.617,61.035
1689860542.556,37.109,27.832,37.109,35.156,37.598
1689860542.560,33.691,31.250,38.574,29.785,7.812
1689860542.564,48.828,33.203,41.504,37.598,-9.277
1689860542.568,60.547,32.227,41.016,45.898,37.598
1689860542.572,52.246,33.691,35.645,39.062,69.824
1689860542.576,39.551,35.156,36.621,32.715,15.625
1689860542.580,31.738,35.156,41.016,29.785,56.641
1689860542.584,41.016,35.156,40.039,33.691,64.941
1689860542.588,56.641,33.203,37.598,48.340,5.371
1689860542.591,57.617,33.203,37.598,53.223,40.039
1689860542.595,46.387,34.180,41.016,46.387,24.414
1689860542.599,35.156,30.762,44.434,40.039,-55.664
1689860542.603,38.086,27.832,47.852,43.457,-5.859
1689860542.607,52.734,27.832,46.875,48.828,68.848
1689860542.611,52.246,28.809,42.480,47.363,90.820
1689860542.615,36.133,30.762,39.062,49.805,83.496
1689860542.619,27.344,29.297,36.133,41.016,52.734
1689860542.623,37.598,28.320,40.527,29.297,3.906
1689860542.627,60.059,29.297,45.898,47.363,34.180
1689860542.631,64.941,28.809,47.852,61.523,105.957
1689860542.634,55.176,26.855,44.922,53.223,63.965
1689860542.638,52.246,32.715,44.434,51.270,5.859
1689860542.642,53.711,38.086,45.410,50.781,5.859
1689860542.646,62.500,32.715,44.434,59.570,25.879
1689860542.650,70.312,30.762,43.457,67.383,50.293
1689860542.654,61.035,27.832,44.434,62.500,0.488
1689860542.658,46.875,27.344,43.457,58.594,-13.672
1689860542.662,46.387,31.250,40.039,51.270,25.879
1689860542.666,58.594,31.738,36.133,54.688,73.730
1689860542.670,64.941,29.297,38.574,62.012,104.004
1689860542.674,53.711,30.762,37.598,65.918,5.371
1689860542.677,35.645,33.691,34.180,56.152,-40.527
1689860542.681,27.832,32.227,37.598,39.062,-14.160
1689860542.685,35.645,30.762,35.645,42.480,-27.344
1689860542.689,45.410,37.109,39.062,51.270,8.301
1689860542.693,38.086,34.668,45.410,46.875,6.348
1689860542.697,24.414,24.414,43.457,39.551,-21.484
1689860542.701,18.066,23.926,40.039,30.762,35.156
1689860542.705,32.715,27.344,40.527,35.645,32.715
1689860542.709,48.828,31.738,41.504,46.875,-1.465
1689860542.713,48.828,29.785,37.109,49.805,-16.113
1689860542.716,39.062,32.227,37.598,43.945,-29.297
1689860542.720,32.715,33.203,34.668,34.668,21.973
1689860542.724,41.504,30.762,30.273,40.039,17.578
1689860542.728,53.711,35.156,40.527,50.781,24.902
1689860542.732,51.270,38.086,45.410,55.664,8.301
1689860542.736,34.668,38.574,39.551,42.969,-32.227
1689860542.740,31.250,40.527,41.016,23.926,-13.184
1689860542.744,51.758,41.016,42.969,33.203,-5.371
1689860542.748,68.359,42.480,43.457,47.852,-11.230
1689860542.752,72.266,43.457,38.574,54.688,-3.418
1689860542.756,65.430,36.621,37.598,49.805,32.715
1689860542.759,52.734,35.645,41.504,36.621,26.855
1689860542.763,54.199,37.109,41.504,47.363,20.508
1689860542.767,69.336,38.574,40.527,68.848,70.312
1689860542.771,69.336,39.551,39.062,75.195,6.836
1689860542.775,48.340,40.039,42.480,63.965,17.578
1689860542.779,25.879,37.109,58.594,34.668,36.621
1689860542.783,26.855,38.574,65.918,27.344,-9.277
1689860542.787,60.059,52.734,38.574,59.570,76.660
1689860542.791,76.660,48.828,21.973,82.520,72.266
1689860542.795,64.453,40.527,27.344,80.566,31.738
1689860542.798,55.176,47.852,40.039,68.848,3.906
1689860542.802,55.176,43.945,47.363,61.523,13.184
1689860542.806,51.270,29.785,45.410,45.898,33.203
1689860542.810,48.828,32.227,43.945,45.898,27.344
1689860542.814,54.688,46.387,39.551,70.801,37.598
1689860542.818,56.152,50.293,39.551,72.754,6.836
1689860542.822,29.785,36.133,60.547,30.762,-18.066
1689860542.826,24.414,23.926,74.707,11.230,39.062
1689860542.830,50.293,37.598,55.664,51.758,56.152
1689860542.834,55.664,52.246,32.227,82.520,10.254
1689860542.838,27.832,49.805,18.066,56.152,27.832
1689860542.841,10.254,55.176,22.461,32.227,14.160
1689860542.845,33.691,51.758,39.551,44.434,41.992
1689860542.849,33.691,33.691,64.941,33.691,54.199
1689860542.853,47.363,42.480,61.035,65.430,5.371
1689860542.857,46.875,40.039,30.273,72.754,4.883
1689860542.861,20.508,26.855,31.738,34.668,30.273
1689860542.865,32.227,31.250,44.922,32.227,48.828
1689860542.869,61.035,39.551,46.387,56.641,-14.648
1689860542.873,51.270,41.992,46.875,60.059,-50.781
1689860542.877,26.855,42.480,52.246,44.434,29.297
1689860542.881,30.273,39.062,49.805,48.828,14.648
1689860542.884,43.457,34.668,56.641,54.199,-10.742
1689860542.888,42.969,36.133,52.734,51.270,11.230
1689860542.892,35.156,38.086,47.852,49.316,38.574
1689860542.896,23.438,33.691,52.246,39.551,44.922
1689860542.900,11.719,25.391,50.293,30.762,40.039
1689860542.904,21.484,32.227,54.688,35.156,59.082
1689860542.908,33.203,37.598,48.340,47.852,88.867
1689860542.912,35.156,30.273,47.363,61.523,74.219
1689860542.916,36.621,35.645,53.223,61.035,-10.742
1689860542.920,29.785,36.133,49.805,45.410,-8.789
1689860542.924,35.645,33.203,51.270,47.363,37.109
1689860542.927,36.621,24.902,49.805,41.504,33.691
1689860542.931,25.879,20.020,45.898,33.203,60.059
1689860542.935,32.715,32.227,45.898,41.016,66.406
1689860542.939,39.551,34.180,52.734,42.969,7.324
1689860542.943,40.527,31.738,50.781,39.062,22.461
1689860542.947,38.574,29.297,46.387,37.109,-7.812
1689860542.951,40.039,20.996,43.945,41.504,-61.523
1689860542.955,42.969,23.438,43.945,48.828,-4.395
1689860542.959,32.227,29.297,45.410,42.969,-25.879
1689860542.963,41.504,25.391,45.410,43.457,7.324
1689860542.966,60.059,23.438,49.316,51.758,52.246
1689860542.970,58.594,24.414,50.781,51.758,43.945
1689860542.974,42.480,20.508,49.805,45.898,72.266
1689860542.978,28.320,24.414,45.410,33.691,98.145
1689860542.982,38.574,29.297,40.527,32.715,52.246
1689860542.986,54.199,22.461,42.969,38.086,13.672
1689860542.990,49.805,21.973,40.039,41.016,15.625
1689860542.994,45.898,25.879,41.504,35.156,29.785
1689860542.998,40.039,24.414,43.457,23.926,19.531
1689860543.002,40.039,23.438,41.992,28.809,-11.230
1689860543.006,57.129,25.391,41.504,41.016,19.531
1689860543.009,59.082,21.973,40.039,48.340,-32.227
1689860543.013,48.340,20.020,41.504,43.945,-20.020
1689860543.017,38.574,24.902,49.316,38.086,19.531
1689860543.021,36.621,24.414,49.805,32.227,12.695
1689860543.025,50.293,13.672,41.992,36.133,42.480
1689860543.029,61.523,12.207,39.551,45.410,48.828
1689860543.033,60.059,20.508,38.574,50.781,-2.930
1689860543.037,46.875,15.137,41.016,44.434,0.000
1689860543.041,39.551,8.301,41.504,37.598,9.766
1689860543.045,49.805,11.719,40.527,43.457,20.020
1689860543.048,60.059,15.625,42.969,59.082,46.387
1689860543.052,57.617,12.695,45.410,71.289,8.789
1689860543.056,39.551,14.160,44.922,51.270,-8.301
1689860543.060,35.645,17.090,42.480,38.086,-25.391
1689860543.064,45.410,12.207,40.527,46.875,19.531
1689860543.068,47.363,12.695,39.551,51.758,33.691
1689860543.072,52.734,13.672,38.086,53.223,1.465
1689860543.076,52.246,12.207,37.109,51.758,7.812
1689860543.080,45.898,12.207,39.551,45.410,17.090
1689860543.084,54.199,13.672,37.598,39.062,10.254
1689860543.088,66.406,12.207,37.598,41.016,-2.930
1689860543.091,66.406,12.207,34.668,47.852,-47.363
1689860543.095,47.852,12.207,34.180,48.340,-6.348
1689860543.099,31.250,11.719,37.598,31.738,87.402
1689860543.103,35.156,11.230,37.109,26.367,52.246
1689860543.107,53.223,13.184,38.574,40.527,-21.484
1689860543.111,56.152,14.648,40.039,51.270,11.719
1689860543.115,41.992,12.695,41.504,45.410,69.824
1689860543.119,33.203,16.602,40.527,32.715,45.410
1689860543.123,32.715,17.578,40.527,30.273,9.766
1689860543.127,47.363,20.508,41.504,42.480,10.742
1689860543.130,57.129,21.973,39.062,60.547,28.809
1689860543.134,53.711,11.230,41.992,66.895,66.895
1689860543.138,57.617,12.207,49.316,70.312,74.219
1689860543.142,55.176,25.879,41.992,55.664,33.203
1689860543.146,42.969,34.180,30.273,32.715,18.555
1689860543.150,40.039,32.227,26.855,22.949,22.461
1689860543.154,38.086,38.574,23.926,17.578,-20.508
1689860543.158,35.156,37.109,29.785,20.996,-18.555
1689860543.162,39.551,26.367,38.086,28.320,-7.812
1689860543.166,49.316,29.785,36.133,33.691,-5.859
1689860543.170,43.945,30.762,32.715,35.645,37.598
1689860543.173,30.762,26.855,37.598,34.668,60.547
1689860543.177,23.926,25.391,43.457,22.461,108.887
1689860543.181,23.926,25.391,42.969,15.625,34.668
1689860543.185,37.598,27.344,38.574,26.367,-28.320
1689860543.189,52.246,30.762,39.062,36.133,-5.371
1689860543.193,55.176,30.762,37.109,43.457,9.277
1689860543.197,43.945,32.227,38.574,38.086,63.965
1689860543.201,36.621,31.738,39.062,29.785,60.059
1689860543.205,45.898,31.250,36.133,36.621,39.062
1689860543.209,58.105,33.691,40.039,49.316,8.789
1689860543.213,53.223,33.691,42.480,51.270,-10.742
1689860543.216,37.598,32.227,42.969,37.598,59.570
1689860543.220,30.762,36.621,40.039,27.344,86.426
1689860543.224,41.992,37.109,35.645,34.668,82.520
1689860543.228,54.199,32.227,39.062,51.270,47.363
1689860543.232,45.898,29.297,40.527,54.199,3.906
1689860543.236,34.180,26.367,36.621,40.527,11.719
1689860543.240,28.809,24.414,35.156,30.762,24.414
1689860543.244,36.133,25.391,37.598,36.133,54.688
1689860543.248,43.457,25.391,36.621,43.945,31.738
1689860543.252,38.086,26.855,34.668,49.805,-25.391
1689860543.256,30.273,28.320,35.645,42.480,-32.227
1689860543.259,26.855,30.273,39.551,34.180,-8.789
1689860543.263,29.297,33.691,41.016,37.109,36.621
1689860543.267,40.527,34.668,37.598,41.992,15.137
1689860543.271,53.223,36.621,36.621,51.758,42.969
1689860543.275,47.852,41.016,40.039,53.223,91.797
1689860543.279,36.621,39.062,40.039,37.598,33.203
1689860543.283,40.039,40.527,34.180,33.691,-14.160
1689860543.287,51.270,43.457,34.180,43.945,40.039
1689860543.291,49.316,39.551,38.086,46.387,23.926
1689860543.295,37.598,39.551,40.527,40.527,-19.531
1689860543.298,24.414,42.480,41.504,30.762,35.645
1689860543.302,28.809,42.969,43.945,26.855,37.109
1689860543.306,39.551,43.457,49.805,40.039,38.574
1689860543.310,31.738,43.457,48.340,36.133,104.492
1689860543.314,26.855,40.527,44.922,28.320,47.852
1689860543.318,38.086,32.715,50.781,32.715,-86.426
1689860543.322,35.156,40.527,56.641,33.691,-27.344
1689860543.326,12.207,50.293,52.734,13.184,-28.320
1689860543.330,1.465,46.875,51.270,9.277,-46.875
1689860543.334,1.953,40.039,51.758,25.391,37.598
1689860543.338,6.348,36.621,47.852,23.438,18.555
1689860543.341,1.953,37.109,49.316,10.742,-36.621
1689860543.345,-2.441,41.992,48.340,4.395,27.832
1689860543.349,7.324,52.734,40.527,15.137,54.199
1689860543.353,-5.371,46.875,40.527,13.672,22.949
1689860543.357,-17.090,41.016,43.457,-2.441,55.664
1689860543.361,-13.184,46.387,37.109,-14.160,-0.488
1689860543.365,-8.789,49.316,34.668,-5.859,-30.762
1689860543.369,-5.859,45.410,40.527,7.324,-7.812
1689860543.373,5.371,43.457,40.527,15.137,8.789
1689860543.377,3.418,46.875,39.551,10.254,4.395
1689860543.381,-12.207,49.316,37.598,-7.324,-49.316
1689860543.384,4.395,47.852,33.203,-5.371,-23.926
1689860543.388,28.320,45.410,28.809,13.184,37.109
1689860543.392,31.738,42.480,26.855,29.785,41.992
1689860543.396,26.855,41.992,32.715,33.203,-27.344
1689860543.400,24.414,43.945,31.250,20.508,-62.500
1689860543.404,47.363,43.457,22.461,30.273,-2.930
1689860543.408,71.289,41.016,24.902,54.688,10.742
1689860543.412,82.031,40.527,23.438,68.848,13.672
1689860543.416,75.195,41.504,21.973,72.266,17.090
1689860543.420,65.918,37.598,26.367,64.453,35.156
1689860543.423,80.566,37.109,24.414,70.312,-14.160
1689860543.427,97.656,38.086,23.926,90.820,-24.902
1689860543.431,103.516,36.133,29.785,102.051,70.801
1689860543.435,90.820,36.621,29.785,82.520,66.895
1689860543.439,79.590,35.156,25.391,64.453,5.859
1689860543.443,93.262,32.715,26.855,67.871,-25.391
1689860543.447,121.094,34.668,27.344,77.148,-15.137
1689860543.451,122.559,37.109,20.996,90.332,25.879
1689860543.455,111.816,30.273,22.461,92.285,33.203
1689860543.459,106.934,23.926,26.855,86.914,-15.137
1689860543.462,107.422,26.367,25.391,77.148,-22.949
1689860543.466,111.816,30.762,25.879,76.172,6.836
1689860543.470,103.027,27.344,26.367,87.891,-7.812
1689860543.474,90.332,27.832,24.414,95.215,-21.973
1689860543.478,86.426,29.785,21.973,96.191,-5.371
1689860543.482,91.797,24.414,24.414,95.215,20.508
1689860543.486,104.980,23.926,22.461,99.609,22.461
1689860543.490,111.328,25.879,19.043,109.375,28.320
1689860543.494,93.750,21.484,27.344,104.492,39.551
1689860543.498,84.473,14.648,32.715,94.727,-8.301
1689860543.502,100.098,15.625,30.273,93.262,-24.902
1689860543.505,116.699,18.066,30.762,112.793,29.785
1689860543.509,116.699,18.555,35.156,125.977,55.664
1689860543.513,111.328,20.508,30.762,117.676,43.945
1689860543.517,101.074,21.973,29.297,107.422,68.848
1689860543.521,96.680,29.297,31.250,95.703,75.684
1689860543.525,112.305,27.344,30.273,106.934,47.852
1689860543.529,109.375,27.344,35.156,107.910,45.410
1689860543.533,104.980,34.668,31.738,102.051,31.738
1689860543.537,110.840,36.133,26.367,109.863,10.254
1689860543.541,102.539,37.109,27.344,91.797,30.273
1689860543.545,93.262,32.715,38.086,78.613,46.387
1689860543.548,90.820,32.227,38.086,87.891,62.012
1689860543.552,96.191,35.645,25.879,93.750,23.926
1689860543.556,103.027,38.086,21.973,95.703,2.441
1689860543.560,95.215,38.574,24.902,81.543,58.105
1689860543.564,100.586,32.715,30.273,82.031,46.387
1689860543.568,113.770,32.715,27.832,108.398,39.062
1689860543.572,98.145,36.621,26.367,102.051,83.984
1689860543.576,83.496,34.180,28.320,88.379,54.199
1689860543.580,90.332,33.691,26.367,96.680,-10.254
1689860543.584,93.750,37.109,30.273,95.703,7.812
1689860543.588,86.914,34.668,36.621,90.332,29.785
1689860543.591,82.031,27.832,41.504,94.727,55.176
1689860543.595,80.078,29.297,41.992,92.773,37.109
1689860543.599,77.148,33.203,37.109,78.613,-8.789
1689860543.603,86.914,30.273,38.574,83.496,2.930
1689860543.607,97.656,31.250,36.621,94.727,36.621
1689860543.611,95.215,29.785,34.180,101.074,80.566
1689860543.615,94.238,30.762,33.203,102.051,39.551
1689860543.619,94.238,30.762,34.180,97.656,18.066
1689860543.623,99.609,31.738,36.621,89.355,-2.441
1689860543.627,104.980,30.273,36.133,92.285,-31.738
1689860543.630,105.469,27.344,35.156,97.168,-40.527
1689860543.634,97.656,28.320,35.645,87.402,12.207
1689860543.638,86.426,25.879,39.062,86.426,82.520
1689860543.642,97.656,26.855,35.156,87.402,35.156
1689860543.646,108.887,31.250,33.203,87.402,11.230
1689860543.650,110.840,28.809,31.738,90.820,23.438
1689860543.654,104.980,25.391,31.738,88.867,-6.348
1689860543.658,98.633,28.320,34.180,86.426,-22.949
1689860543.662,99.609,32.227,31.738,83.496,41.016
1689860543.666,111.816,31.250,33.203,91.309,49.316
1689860543.670,124.023,29.297,36.133,106.934,73.730
1689860543.673,115.723,30.273,38.086,101.562,75.684
1689860543.677,101.562,29.785,40.527,91.309,-9.766
1689860543.681,104.004,28.809,40.527,90.332,11.230
1689860543.685,121.094,28.320,37.598,99.121,64.453
1689860543.689,127.930,24.414,36.133,101.074,17.090
1689860543.693,120.117,24.902,35.645,97.168,-4.395
1689860543.697,105.469,25.391,33.203,91.309,25.879
1689860543.701,92.773,21.484,34.180,77.637,49.805
1689860543.705,113.770,14.648,35.156,93.262,33.203
1689860543.709,131.836,16.602,35.156,115.723,10.742
1689860543.713,108.398,26.855,29.785,96.680,12.695
1689860543.716,68.359,28.320,26.855,56.641,-11.230
1689860543.720,50.781,27.832,30.273,36.133,-19.043
1689860543.724,63.965,26.367,27.832,43.457,96.191
1689860543.728,78.125,21.973,30.273,59.570,73.242
1689860543.732,73.730,23.926,30.273,61.523,-42.969
1689860543.736,55.664,25.879,26.855,46.875,21.484
1689860543.740,47.363,22.949,32.715,37.109,75.195
1689860543.744,59.570,25.391,32.227,46.875,21.973
1689860543.748,76.172,29.785,27.344,48.340,15.137
1689860543.752,81.543,30.762,28.320,46.875,45.898
1689860543.755,67.383,32.715,27.344,49.316,22.461
1689860543.759,60.547,32.227,28.320,41.992,-11.230
1689860543.763,71.777,28.809,29.785,43.945,-31.738
1689860543.767,83.496,28.320,27.832,59.082,-5.859
1689860543.771,82.520,27.344,29.785,74.707,32.715
1689860543.775,66.895,25.391,32.715,71.289,25.879
1689860543.779,59.570,26.855,32.227,57.617,-11.230
1689860543.783,68.359,27.832,33.203,67.383,9.766
1689860543.787,83.984,28.809,35.156,83.008,83.496
1689860543.791,82.520,29.785,33.691,86.914,99.121
1689860543.795,69.824,29.297,37.598,88.379,57.129
1689860543.798,64.453,29.297,43.457,83.984,5.859
1689860543.802,68.359,29.785,42.969,78.613,25.879
1689860543.806,76.172,28.320,43.945,80.566,82.031
1689860543.810,76.660,28.809,45.898,85.449,42.480
1689860543.814,68.848,29.785,43.945,81.543,33.691
1689860543.818,56.152,28.809,44.922,65.430,44.922
1689860543.822,59.082,29.297,42.969,56.641,25.879
1689860543.826,77.637,28.809,40.039,57.617,85.449
1689860543.830,79.590,25.879,42.969,66.406,44.922
1689860543.834,69.336,27.344,44.922,69.824,-11.719
1689860543.837,62.012,28.809,44.434,56.152,0.000
1689860543.841,61.035,29.297,42.969,51.270,72.266
1689860543.845,79.590,30.762,40.039,52.246,47.852
1689860543.849,87.402,31.250,37.109,58.105,-3.906
1689860543.853,76.172,31.250,38.086,65.918,-5.859
1689860543.857,67.871,33.203,40.039,58.594,-2.441
1689860543.861,59.082,30.273,41.992,52.734,-5.371
1689860543.865,63.477,28.809,37.598,53.711,44.434
1689860543.869,62.012,26.855,35.645,61.035,21.973
1689860543.873,49.316,19.531,30.273,52.734,-44.922
1689860543.877,71.289,19.531,16.113,62.012,9.277
1689860543.880,99.121,29.297,22.949,94.727,54.688
1689860543.884,74.219,24.414,42.969,66.895,42.480
1689860543.888,38.086,12.695,49.805,35.156,0.977
1689860543.892,20.508,15.625,50.293,35.156,29.297
1689860543.896,-2.930,19.531,46.875,7.324,66.406
1689860543.900,-20.020,19.531,41.992,-14.648,28.809
1689860543.904,-24.902,16.113,50.293,-23.926,32.227
1689860543.908,-28.809,15.625,54.199,-32.715,4.395
1689860543.912,-38.574,18.066,51.270,-38.086,-4.395
1689860543.916,-56.641,16.113,54.688,-53.711,31.738
1689860543.920,-69.336,13.672,58.594,-64.453,24.902
1689860543.923,-64.453,8.301,62.988,-71.777,41.992
1689860543.927,-49.805,10.742,57.617,-61.035,57.617
1689860543.931,-53.223,10.254,59.570,-57.617,23.438
1689860543.935,-64.453,3.418,62.988,-64.453,5.859
1689860543.939,-77.148,9.766,62.500,-72.754,46.387
1689860543.943,-73.730,9.766,61.035,-73.730,37.109
1689860543.947,-55.176,8.301,61.035,-53.711,29.297
1689860543.951,-61.035,8.301,62.012,-54.688,34.668
1689860543.955,-61.523,11.719,51.270,-54.688,1.953
1689860543.959,-70.312,17.090,53.711,-64.453,19.043
1689860543.962,-64.941,9.766,54.199,-68.359,21.973
1689860543.966,-37.109,10.254,48.828,-44.434,-5.859
1689860543.970,-43.945,17.578,53.223,-46.387,-25.391
1689860543.974,-49.316,19.043,46.387,-46.387,48.828
1689860543.978,-57.129,16.113,43.945,-50.293,60.547
1689860543.982,-56.152,13.672,50.293,-59.570,12.207
1689860543.986,-25.391,14.160,49.805,-40.527,45.410
1689860543.990,-10.254,14.648,46.387,-16.602,17.578
1689860543.994,-17.090,10.742,48.340,-10.254,16.113
1689860543.998,-21.973,10.742,49.805,-10.742,35.645
1689860544.002,-12.207,9.766,52.246,-8.301,67.871
1689860544.005,1.953,9.277,52.246,2.930,59.082
1689860544.009,3.906,15.137,50.293,13.184,69.824
1689860544.013,0.488,19.043,49.805,8.301,91.797
1689860544.017,-10.742,15.625,44.922,0.000,89.355
1689860544.021,-15.625,14.160,44.922,-7.324,75.195
1689860544.025,4.883,21.484,41.992,7.324,30.273
1689860544.029,21.484,25.879,36.133,22.949,34.668
1689860544.033,22.461,23.926,39.551,22.461,83.984
1689860544.037,14.648,24.902,41.504,17.090,29.785
1689860544.041,11.230,22.461,44.434,7.324,-21.973
1689860544.045,25.879,18.555,44.434,24.902,49.805
1689860544.048,30.273,20.508,44.922,41.992,41.992
1689860544.052,24.414,20.996,45.410,49.316,71.289
1689860544.056,15.137,20.020,45.898,47.852,101.562
1689860544.060,14.160,22.949,47.852,35.156,1.465
1689860544.064,26.855,22.949,48.340,35.645,-43.945
1689860544.068,39.062,26.367,48.340,48.340,18.066
1689860544.072,49.805,29.785,42.969,62.012,-4.883
1689860544.076,46.387,30.762,44.434,61.035,-14.160
1689860544.080,40.527,34.180,47.852,42.480,8.301
1689860544.084,45.898,32.227,48.340,35.645,-2.441
1689860544.087,56.641,33.691,45.410,56.152,-42.480
1689860544.091,52.734,32.715,43.945,60.547,1.465
1689860544.095,34.668,28.809,47.852,48.340,106.934
1689860544.099,35.156,24.414,42.480,47.363,63.477
1689860544.103,70.312,15.625,42.969,73.730,7.812
1689860544.107,78.613,28.320,53.223,74.219,42.480
1689860544.111,37.598,39.062,43.457,32.715,-23.438
1689860544.115,37.109,36.621,32.715,32.227,-10.254
1689860544.119,48.828,38.086,30.273,38.574,64.453
1689860544.123,54.688,36.621,31.250,39.551,-6.836
1689860544.127,66.406,36.621,33.203,43.945,24.902
1689860544.130,57.617,35.645,27.344,33.203,51.758
1689860544.134,47.363,35.156,32.715,33.203,30.762
1689860544.138,39.551,32.227,36.621,27.832,39.062
1689860544.142,46.875,30.273,35.156,25.879,-24.414
1689860544.146,61.523,35.156,41.992,49.316,-28.320
1689860544.150,63.965,31.250,42.969,62.988,22.461
1689860544.154,51.270,29.785,38.086,60.059,56.152
1689860544.158,39.551,34.180,41.504,54.688,99.121
1689860544.162,41.016,31.250,47.363,47.363,43.457
1689860544.166,48.340,30.273,47.363,55.664,-27.344
1689860544.170,51.758,31.738,44.922,60.547,-24.414
1689860544.173,37.598,34.180,47.363,49.316,-19.531
1689860544.177,20.020,35.156,49.316,34.180,-25.879
1689860544.181,20.020,30.762,43.945,31.250,4.395
1689860544.185,33.203,30.273,42.480,45.898,-8.301
1689860544.189,40.527,34.668,43.945,59.082,-19.043
1689860544.193,37.109,36.133,45.898,61.035,51.758
1689860544.197,37.109,36.133,45.898,50.293,58.105
1689860544.201,41.016,34.668,41.504,43.945,8.789
1689860544.205,51.758,32.715,40.527,55.176,42.480
1689860544.209,57.617,32.715,40.039,64.941,82.031
1689860544.212,50.781,31.738,40.039,67.383,17.578
1689860544.216,40.527,33.203,40.527,55.176,13.672
1689860544.220,41.504,34.668,40.527,41.504,68.848
1689860544.224,57.617,36.621,41.016,55.176,58.594
1689860544.228,59.570,38.086,42.969,64.453,65.918
1689860544.232,48.828,39.551,44.922,63.477,71.289
1689860544.236,37.109,40.527,46.875,60.059,0.977
1689860544.240,32.227,40.527,46.875,47.852,16.113
1689860544.244,44.434,38.574,41.504,48.828,8.789
1689860544.248,59.082,38.574,38.086,61.035,-2.441
1689860544.252,58.105,41.504,44.922,68.359,7.324
1689860544.255,47.363,41.016,50.293,59.570,-6.348
1689860544.259,39.062,39.062,47.852,41.992,-15.625
1689860544.263,48.340,39.062,45.410,41.504,-23.438
1689860544.267,56.641,38.574,45.410,48.340,-14.648
1689860544.271,55.176,36.133,41.016,50.781,-36.621
1689860544.275,44.922,33.203,35.156,49.316,36.133
1689860544.279,37.598,35.645,38.574,36.621,16.113
1689860544.283,48.340,39.062,42.969,36.133,-0.488
1689860544.287,58.594,40.039,43.457,46.875,-1.953
1689860544.291,54.199,38.574,41.016,48.828,-38.574
1689860544.294,41.992,36.621,40.527,44.922,29.785
1689860544.298,32.227,38.086,42.969,34.668,41.504
1689860544.302,36.133,40.039,37.109,27.832,-13.672
1689860544.306,45.898,39.551,32.715,31.250,-14.160
1689860544.310,48.828,38.086,35.645,43.945,17.090
1689860544.314,39.551,38.574,38.574,42.480,39.062
1689860544.318,29.297,38.574,36.133,29.785,50.781
1689860544.322,38.086,39.551,37.109,30.762,46.387
1689860544.326,51.270,40.039,41.016,44.434,54.199
1689860544.330,54.199,38.574,44.434,54.199,-34.180
1689860544.334,48.340,38.086,42.969,50.781,-54.199
1689860544.337,40.527,40.039,45.410,47.363,8.789
1689860544.341,36.133,39.551,50.781,47.363,25.879
1689860544.345,49.805,37.598,43.945,57.617,78.125
1689860544.349,76.172,41.016,33.691,80.078,61.035
1689860544.353,69.336,41.016,37.109,80.566,1.953
1689860544.357,30.762,35.645,51.270,47.363,2.441
1689860544.361,22.461,33.691,51.758,34.668,58.105
1689860544.365,49.316,33.691,44.434,54.688,90.820
1689860544.369,58.105,28.809,41.992,62.988,81.055
1689860544.373,53.711,29.297,41.992,60.059,26.855
1689860544.377,44.434,34.180,42.480,50.781,18.555
1689860544.380,36.621,31.250,39.062,36.621,13.672
1689860544.384,50.293,31.738,36.621,41.504,3.418
1689860544.388,60.059,34.180,38.574,50.781,1.465
1689860544.392,57.617,34.180,37.109,47.852,14.160
1689860544.396,48.340,35.645,32.715,41.504,6.836
1689860544.400,38.086,36.133,30.273,34.180,27.344
1689860544.404,49.805,38.574,31.738,35.156,33.691
1689860544.408,57.617,37.598,32.227,36.621,-34.180
1689860544.412,52.734,33.691,33.691,36.133,-35.645
1689860544.416,39.551,33.691,36.133,30.762,-31.738
1689860544.420,32.227,35.156,34.668,25.391,1.465
1689860544.423,50.293,36.621,35.645,35.156,0.977
1689860544.427,66.406,38.574,38.086,49.316,-10.742
1689860544.431,61.523,37.109,39.062,55.176,33.203
1689860544.435,49.316,32.715,39.551,46.387,26.367
1689860544.439,44.434,31.250,36.621,41.992,13.672
1689860544.443,57.129,31.738,40.039,47.852,19.531
1689860544.447,67.871,31.738,41.504,58.594,8.301
1689860544.451,62.988,31.738,40.039,64.941,78.125
1689860544.455,54.199,32.227,42.480,58.594,62.988
1689860544.459,49.805,34.180,43.945,51.270,28.320
1689860544.462,60.547,33.203,42.480,50.781,41.504
1689860544.466,71.289,33.203,40.039,54.199,59.570
1689860544.470,65.430,33.203,42.969,55.176,57.129
1689860544.474,56.641,31.738,43.945,54.199,10.742
1689860544.478,54.199,31.250,42.480,49.316,4.395
1689860544.482,61.035,30.273,39.551,41.992,21.973
1689860544.486,69.824,31.250,34.180,48.340,26.855
1689860544.490,65.918,34.668,32.227,57.129,21.973
1689860544.494,53.711,35.156,33.691,50.781,25.879
1689860544.498,44.922,35.156,34.180,43.457,32.715
1689860544.502,45.410,35.156,34.180,41.992,36.133
1689860544.505,60.547,37.598,34.668,46.875,49.805
1689860544.509,63.477,40.527,35.156,56.152,4.883
1689860544.513,44.434,38.574,36.133,51.270,13.672
1689860544.517,30.273,36.133,36.621,42.969,47.363
1689860544.521,28.320,34.668,35.156,37.598,44.922
1689860544.525,41.016,35.156,33.203,39.551,27.344
1689860544.529,44.922,35.645,33.691,46.387,13.672
1689860544.533,32.227,36.621,33.203,39.551,17.090
1689860544.537,24.414,37.598,34.668,27.832,37.109
1689860544.541,24.414,39.062,38.086,26.855,72.266
1689860544.544,33.691,41.504,36.621,31.250,66.895
1689860544.548,37.598,38.574,36.621,36.621,62.988
1689860544.552,28.320,36.621,39.062,35.156,38.574
1689860544.556,23.926,40.039,39.062,32.227,-3.906
1689860544.560,33.203,41.992,35.645,32.715,-24.902
1689860544.564,48.828,43.945,35.645,41.992,-13.184
1689860544.568,32.227,41.016,43.945,38.574,-13.672
1689860544.572,9.766,30.762,46.875,28.320,0.488
1689860544.576,19.531,29.785,44.434,35.645,25.391
1689860544.580,16.602,33.691,46.387,36.621,-30.273
1689860544.584,20.020,28.809,45.410,40.039,-21.484
1689860544.587,36.133,27.832,41.992,56.152,10.254
1689860544.591,35.645,29.297,41.016,61.523,25.879
1689860544.595,24.902,27.344,43.457,48.828,16.602
1689860544.599,28.809,27.832,43.457,40.527,34.668
1689860544.603,48.340,28.320,41.504,44.922,72.266
1689860544.607,57.129,29.297,39.062,53.223,69.336
1689860544.611,51.270,32.715,39.551,56.641,12.695
1689860544.615,41.016,30.273,44.434,51.758,-10.254
1689860544.619,39.551,29.785,48.340,43.945,18.555
1689860544.623,52.246,33.203,44.434,47.363,11.230
1689860544.626,64.941,33.691,42.480,57.617,23.438
1689860544.630,64.941,32.227,45.410,57.617,28.809
1689860544.634,55.176,33.203,43.945,55.176,5.859
1689860544.638,48.828,32.227,44.434,47.852,-5.859
1689860544.642,54.688,31.738,45.898,43.945,24.902
1689860544.646,64.941,33.203,41.992,57.129,88.867
1689860544.650,62.012,33.691,40.039,58.594,119.629
1689860544.654,49.316,31.738,41.016,47.363,58.105
1689860544.658,43.945,33.203,39.551,44.434,-0.977
1689860544.662,52.246,35.156,33.691,40.527,-3.418
1689860544.666,62.500,34.180,34.180,42.969,0.977
1689860544.669,56.152,31.738,37.109,54.199,20.020
1689860544.673,46.387,29.297,40.527,56.152,13.184
1689860544.677,41.016,29.297,41.016,44.434,26.855
1689860544.681,41.016,30.273,38.574,43.457,35.645
1689860544.685,49.805,28.809,39.551,48.828,32.715
1689860544.689,52.246,29.785,41.016,51.270,56.641
1689860544.693,42.480,30.273,41.992,49.805,15.625
1689860544.697,38.574,27.832,44.434,44.434,-2.930
1689860544.701,43.945,28.320,43.945,43.945,-13.672
1689860544.705,54.199,28.320,41.504,48.340,34.668
1689860544.709,59.082,26.855,42.969,51.758,81.543
1689860544.712,48.828,25.391,41.504,47.363,59.570
1689860544.716,39.062,25.391,40.527,35.645,20.020
1689860544.720,40.039,28.320,41.504,29.785,39.551
1689860544.724,48.828,29.785,40.039,31.738,22.949
1689860544.728,48.828,28.809,39.062,34.180,31.250
1689860544.732,42.480,30.273,38.574,40.527,70.312
1689860544.736,39.062,33.203,40.039,35.156,11.230
1689860544.740,38.086,30.762,36.133,27.832,26.855
1689860544.744,44.922,28.320,36.133,36.133,72.266
1689860544.748,51.270,26.855,35.645,44.434,30.762
1689860544.751,46.875,28.320,33.691,49.316,32.715
1689860544.755,42.480,28.320,36.621,42.480,14.160
1689860544.759,41.016,27.832,37.598,30.762,-14.160
1689860544.763,43.457,30.762,37.109,25.879,39.062
1689860544.767,50.781,31.250,35.156,36.621,53.223
1689860544.771,53.711,31.250,38.574,47.852,33.203
1689860544.775,42.969,32.227,39.062,38.574,32.715
1689860544.779,33.203,27.344,37.598,26.367,23.438
1689860544.783,41.992,24.414,36.133,24.414,-25.391
1689860544.787,56.641,24.902,35.156,36.133,24.902
1689860544.791,60.059,27.832,34.668,54.199,12.207
1689860544.794,46.387,32.227,32.227,49.316,-10.254
1689860544.798,29.785,30.762,36.133,38.574,87.402
1689860544.802,24.414,31.250,44.434,35.156,56.152
1689860544.806,26.367,29.785,49.316,36.133,-1.465
1689860544.810,41.992,27.344,49.316,57.617,13.184
1689860544.814,37.598,27.344,47.852,55.176,-26.855
1689860544.818,27.832,27.344,44.434,41.504,7.812
1689860544.822,40.039,28.320,41.504,42.480,35.645
1689860544.826,45.410,31.250,41.992,45.410,-5.859
1689860544.830,44.434,31.738,40.527,50.781,17.578
1689860544.834,40.527,30.762,39.062,50.293,-2.930
1689860544.837,37.109,35.645,36.621,45.410,24.414
1689860544.841,39.062,35.156,35.645,45.410,53.223
1689860544.845,50.781,33.691,36.621,51.270,32.715
1689860544.849,54.199,36.133,35.645,53.711,-4.395
1689860544.853,43.457,35.645,34.180,50.293,-36.621
1689860544.857,34.180,36.621,36.133,35.645,-29.297
1689860544.861,34.180,38.086,41.992,29.297,10.742
1689860544.865,44.922,38.086,43.457,41.992,-2.930
1689860544.869,42.969,33.203,40.039,44.922,17.090
1689860544.873,33.691,33.691,37.598,38.574,24.414
1689860544.876,31.738,35.645,35.156,40.039,6.836
1689860544.880,32.715,35.645,39.062,38.574,32.227
1689860544.884,44.922,36.133,42.480,40.039,-27.832
1689860544.888,53.711,35.156,41.504,50.781,-2.441
1689860544.892,47.363,33.203,41.016,54.688,31.738
1689860544.896,41.016,34.180,44.434,50.781,-32.227
1689860544.900,39.551,33.691,46.875,46.387,31.250
1689860544.904,52.246,31.250,45.898,43.945,53.711
1689860544.908,52.246,28.809,42.480,51.270,35.156
1689860544.912,43.945,27.344,41.016,56.152,91.797
1689860544.916,36.621,25.879,46.387,46.387,50.293
1689860544.919,32.227,28.809,43.457,36.133,29.785
1689860544.923,43.457,30.273,43.457,40.039,20.020
1689860544.927,53.711,30.762,44.922,55.664,15.137
1689860544.931,47.852,30.762,41.992,58.594,78.613
1689860544.935,33.691,30.762,42.969,46.387,41.016
1689860544.939,24.414,28.809,39.551,38.574,62.012
1689860544.943,32.715,32.227,39.551,37.109,133.301
1689860544.947,46.387,35.156,39.062,44.434,32.715
1689860544.951,52.734,31.738,33.691,56.641,-0.488
1689860544.955,43.945,29.785,35.645,51.270,13.672
1689860544.958,33.691,32.227,37.598,34.668,-31.250
1689860544.962,41.016,36.621,31.250,22.949,50.781
1689860544.966,46.875,35.156,31.250,28.320,70.801
1689860544.970,43.945,34.668,32.227,35.156,8.301
1689860544.974,36.621,32.715,33.691,31.738,-3.418
1689860544.978,33.203,29.785,35.156,33.691,-8.789
1689860544.982,44.922,29.785,33.203,32.715,26.367
1689860544.986,60.547,29.785,33.203,42.969,41.016
1689860544.990,65.430,32.715,34.668,58.594,12.695
1689860544.994,54.199,29.297,33.691,48.828,16.602
1689860544.998,50.781,25.879,35.645,47.363,66.895
1689860545.001,58.105,27.832,40.039,50.293,99.121
1689860545.005,65.918,29.785,41.504,58.105,35.645
1689860545.009,65.430,30.762,42.969,70.312,9.277
1689860545.013,55.176,31.738,44.434,65.918,42.969
1689860545.017,48.828,30.762,46.875,61.523,34.180
1689860545.021,49.805,29.785,44.922,54.688,33.691
1689860545.025,57.617,29.785,44.922,57.617,50.781
1689860545.029,57.617,31.250,45.410,66.895,79.102
1689860545.033,47.363,34.180,43.945,60.547,-13.672
1689860545.037,36.133,28.320,43.945,47.363,-103.516
1689860545.041,37.598,24.902,44.922,39.062,-59.570
1689860545.044,48.340,27.344,42.480,41.504,14.160
1689860545.048,50.293,25.879,41.504,49.805,19.531
1689860545.052,45.898,23.438,40.527,52.246,-10.742
1689860545.056,41.504,26.367,38.086,51.758,75.684
1689860545.060,39.062,24.902,40.527,41.992,94.238
1689860545.064,48.340,21.973,37.109,43.945,-10.254
1689860545.068,48.340,24.414,34.180,56.641,7.324
1689860545.072,36.621,24.902,35.156,51.758,57.129
1689860545.076,29.297,24.414,36.133,45.410,62.988
1689860545.080,26.367,26.855,40.039,41.504,52.734
1689860545.083,39.551,29.297,38.086,40.527,60.547
1689860545.087,44.434,26.367,36.133,44.434,70.312
1689860545.091,32.715,24.414,38.574,43.457,53.223
1689860545.095,26.855,25.879,39.062,40.527,64.453
1689860545.099,29.785,28.320,35.156,32.227,52.246
1689860545.103,43.457,28.809,33.691,37.109,11.230
1689860545.107,57.617,29.297,32.715,47.852,-20.996
1689860545.111,52.246,30.273,34.180,45.898,-18.066
1689860545.115,45.898,32.715,37.598,41.504,-1.953
1689860545.119,46.875,37.109,40.039,28.809,-20.996
1689860545.123,54.199,36.133,41.992,32.715,19.043
1689860545.126,65.430,34.668,41.504,48.828,51.270
1689860545.130,64.941,30.762,41.016,54.688,20.508
1689860545.134,55.176,28.809,41.504,54.199,-22.461
1689860545.138,46.387,28.320,44.434,45.898,23.438
1689860545.142,57.617,26.367,43.457,45.410,-13.672
1689860545.146,71.289,25.391,42.969,66.406,6.348
1689860545.150,63.965,23.438,44.434,73.242,70.312
1689860545.154,60.059,23.926,44.922,72.754,8.789
1689860545.158,60.059,25.879,42.969,67.383,82.031
1689860545.162,61.035,25.391,41.504,62.012,118.164
1689860545.166,67.871,25.879,42.969,71.289,28.809
1689860545.169,66.406,27.344,41.504,77.148,-22.461
1689860545.173,56.152,29.785,44.434,72.754,17.578
1689860545.177,43.457,29.297,48.340,51.758,60.547
1689860545.181,38.574,28.320,50.781,45.898,35.156
1689860545.185,42.480,25.879,47.363,54.199,21.973
1689860545.189,43.945,24.414,41.504,54.688,31.738
1689860545.193,35.156,24.414,40.527,46.387,43.457
1689860545.197,29.297,22.949,40.039,29.785,35.156
1689860545.201,32.227,26.367,40.039,26.367,1.953
1689860545.205,44.922,24.902,39.551,35.645,32.715
1689860545.209,44.434,24.414,36.621,38.574,-7.812
1689860545.212,35.156,30.273,34.668,33.691,-29.785
1689860545.216,31.250,30.762,31.738,31.250,15.625
1689860545.220,27.832,27.344,34.180,28.809,21.973
1689860545.224,40.527,28.809,38.086,32.227,27.832
1689860545.228,50.293,28.320,32.227,44.922,38.086
1689860545.232,48.340,23.926,30.273,51.758,51.758
1689860545.236,41.504,21.973,37.109,42.480,12.207
1689860545.240,49.805,14.160,44.922,58.105,2.441
1689860545.244,93.750,7.812,51.270,103.027,0.488
1689860545.248,88.867,18.066,49.805,94.727,-70.801
1689860545.251,30.762,25.879,46.875,41.016,-42.969
1689860545.255,9.766,27.832,47.852,19.043,39.551
1689860545.259,13.184,24.902,50.293,17.578,45.898
1689860545.263,20.508,22.461,49.316,14.160,12.207
1689860545.267,27.344,32.715,40.039,23.926,24.414
1689860545.271,19.043,38.086,37.109,25.391,70.312
1689860545.275,6.836,34.180,38.086,1.465,51.270
1689860545.279,0.488,32.227,38.574,-11.230,4.883
1689860545.283,9.766,28.320,46.875,2.441,13.184
1689860545.287,21.484,23.438,54.199,23.438,28.809
1689860545.291,29.785,27.344,49.316,35.645,43.457
1689860545.294,24.902,29.785,39.062,22.461,72.266
1689860545.298,20.020,29.297,34.180,10.254,64.941
1689860545.302,30.762,32.715,40.039,16.113,58.594
1689860545.306,39.551,33.203,41.016,22.949,11.719
1689860545.310,35.645,34.668,39.062,31.250,-21.484
1689860545.314,26.855,34.668,43.457,29.297,27.832
1689860545.318,14.648,30.762,42.969,19.531,2.930
1689860545.322,22.949,31.250,40.527,22.461,-6.836
1689860545.326,42.480,36.133,38.574,30.273,23.438
1689860545.330,41.992,38.086,36.133,40.527,22.949
1689860545.333,32.227,35.645,38.086,40.039,15.625
1689860545.337,30.762,34.180,40.527,22.461,0.977
1689860545.341,40.527,35.156,40.527,24.414,3.418
1689860545.345,53.223,34.180,42.969,39.551,-19.043
1689860545.349,55.664,33.203,46.387,46.387,-17.090
1689860545.353,44.922,32.227,44.922,35.156,-0.488
1689860545.357,35.156,29.785,45.410,28.320,-0.977
1689860545.361,36.621,28.320,45.898,34.180,35.156
1689860545.365,50.293,30.762,43.945,33.691,58.105
1689860545.369,54.199,31.250,45.410,39.551,8.301
1689860545.373,42.969,33.203,47.363,37.109,30.273
1689860545.376,36.621,34.180,50.293,27.832,77.637
1689860545.380,38.086,31.250,50.293,31.738,23.438
1689860545.384,51.758,34.180,48.340,40.527,-7.324
1689860545.388,56.641,33.691,47.852,46.875,28.809
1689860545.392,45.898,27.832,45.898,46.387,66.406
1689860545.396,37.109,27.344,46.387,36.621,6.348
1689860545.400,37.598,29.297,47.363,36.621,-30.762
1689860545.404,47.852,28.809,43.945,41.992,3.418
1689860545.408,55.176,28.320,41.992,50.781,16.113
1689860545.412,46.875,28.809,42.969,48.340,59.082
1689860545.416,35.156,28.320,41.992,33.203,65.918
1689860545.419,32.227,27.344,38.574,29.785,20.020
1689860545.423,40.039,21.973,39.062,34.180,20.508
1689860545.427,51.758,20.020,40.039,46.875,38.086
1689860545.431,50.781,21.484,41.016,46.387,25.391
1689860545.435,38.574,22.949,41.992,36.621,48.340
1689860545.439,29.297,26.855,41.504,31.738,59.082
1689860545.443,45.410,30.762,41.016,32.227,64.941
1689860545.447,61.523,33.203,42.480,45.410,41.992
1689860545.451,56.641,32.227,42.969,47.852,20.996
1689860545.455,47.363,28.809,45.410,38.086,71.289
1689860545.458,43.457,27.344,44.434,32.227,42.969
1689860545.462,52.734,26.855,39.551,30.762,14.648
1689860545.466,55.664,26.855,41.992,33.691,-42.969
1689860545.470,49.805,27.344,44.922,41.016,-18.555
1689860545.474,41.504,28.320,43.457,45.410,68.848
1689860545.478,33.691,29.297,40.527,37.598,40.039
1689860545.482,37.598,26.367,38.086,29.785,74.219
1689860545.486,47.363,25.879,39.551,41.016,48.828
1689860545.490,47.852,23.926,36.621,47.363,21.484
1689860545.494,41.016,21.484,34.180,41.504,89.844
1689860545.498,41.016,25.879,37.598,39.062,64.941
1689860545.501,44.434,27.344,40.527,37.598,17.578
1689860545.505,52.246,25.391,40.039,45.410,7.324
1689860545.509,53.711,28.809,38.086,53.223,34.180
1689860545.513,47.852,29.297,40.039,51.758,88.379
1689860545.517,40.527,28.320,38.574,41.992,17.578
1689860545.521,46.875,28.320,40.527,40.527,-19.531
1689860545.525,57.617,24.902,43.945,50.293,17.578
1689860545.529,56.152,26.367,41.992,54.199,39.062
1689860545.533,47.363,28.809,38.086,45.410,47.363
1689860545.537,38.086,24.902,40.527,41.504,82.520
1689860545.541,39.062,22.949,44.434,35.645,74.707
1689860545.544,46.875,23.438,39.062,37.598,-21.484
1689860545.548,50.293,22.949,36.133,48.828,12.695
1689860545.552,45.410,24.902,42.480,46.387,34.180
1689860545.556,31.738,24.902,46.875,39.551,6.836
1689860545.560,30.762,22.949,46.875,34.668,5.371
1689860545.564,45.410,22.949,41.016,37.598,-26.855
1689860545.568,49.316,21.973,39.062,47.363,0.977
1689860545.572,41.992,21.484,43.945,51.270,-28.809
1689860545.576,31.250,22.949,43.945,48.340,-75.684
1689860545.580,28.320,19.531,41.504,41.016,-33.691
1689860545.583,40.527,18.066,41.504,41.016,5.859
1689860545.587,49.316,24.902,40.039,44.922,5.859
1689860545.591,41.992,23.926,37.109,40.039,21.484
1689860545.595,31.250,20.508,37.109,35.645,10.742
1689860545.599,26.367,21.973,39.062,29.297,10.742
1689860545.603,38.574,22.949,37.109,34.668,41.016
1689860545.607,50.293,23.438,35.645,46.875,90.332
1689860545.611,45.898,25.879,36.621,49.316,104.004
1689860545.615,31.738,25.391,38.574,45.898,63.965
1689860545.619,27.832,23.926,40.039,37.109,7.812
1689860545.623,36.621,23.438,37.109,36.621,-15.137
1689860545.626,44.434,22.949,34.668,49.316,10.742
1689860545.630,40.039,24.414,37.598,55.176,33.691
1689860545.634,24.414,24.902,40.527,48.828,-8.789
1689860545.638,21.484,29.297,43.457,40.039,-27.832
1689860545.642,24.902,31.738,43.457,38.086,33.203
1689860545.646,33.691,27.344,40.527,45.898,11.719
1689860545.650,36.133,30.762,39.062,47.852,19.043
1689860545.654,31.250,31.250,39.551,41.504,38.086
1689860545.658,33.691,28.320,40.527,39.551,26.367
1689860545.662,41.992,26.855,40.039,41.504,36.621
1689860545.665,52.246,26.855,40.039,48.828,32.227
1689860545.669,57.129,25.391,39.062,53.223,37.598
1689860545.673,48.340,20.996,41.016,48.828,0.000
1689860545.677,45.410,22.949,40.527,44.922,4.395
1689860545.681,55.664,25.391,41.992,44.922,14.648
1689860545.685,68.359,25.879,43.945,58.105,60.059
1689860545.689,69.824,25.879,41.016,65.430,81.543
1689860545.693,62.500,29.297,38.574,59.082,-14.648
1689860545.697,60.547,31.738,33.691,49.316,-54.199
1689860545.701,62.012,32.227,32.715,47.852,-17.090
1689860545.705,67.871,33.203,36.133,55.176,18.066
1689860545.708,69.824,33.203,36.133,61.523,43.457
1689860545.712,61.035,33.691,39.062,57.617,91.309
1689860545.716,54.199,35.156,38.086,50.293,36.133
1689860545.720,52.246,34.668,37.598,46.875,-55.664
1689860545.724,64.453,35.645,43.457,55.176,-8.301
1689860545.728,69.336,36.621,41.992,64.941,-27.832
1689860545.732,59.570,34.180,44.434,66.895,0.977
1689860545.736,49.316,34.668,46.875,58.594,21.484
1689860545.740,46.875,33.691,40.039,54.199,24.902
1689860545.744,60.547,31.250,36.621,55.664,-7.324
1689860545.748,65.430,27.832,35.156,56.641,-22.949
1689860545.751,60.547,25.879,34.180,61.035,20.508
1689860545.755,52.734,24.902,35.156,52.734,41.016
1689860545.759,44.434,21.973,36.133,41.992,4.883
1689860545.763,50.293,20.508,35.645,45.898,26.367
1689860545.767,55.664,20.020,37.598,52.246,97.656
1689860545.771,45.898,16.602,42.969,50.293,94.727
1689860545.775,37.598,14.648,46.387,43.457,28.320
1689860545.779,27.344,18.066,43.945,31.250,-20.508
1689860545.783,30.273,18.555,41.504,31.738,8.789
1689860545.787,41.504,16.113,43.945,41.504,14.648
1689860545.790,37.109,18.555,43.457,42.480,3.906
1689860545.794,27.832,20.020,42.969,37.109,18.555
1689860545.798,29.297,22.461,45.898,33.203,39.062
1689860545.802,41.504,28.320,44.922,29.785,24.414
1689860545.806,44.434,26.855,42.969,34.668,17.090
1689860545.810,43.457,28.809,40.527,45.898,56.152
1689860545.814,36.133,28.320,39.062,42.969,52.246
1689860545.818,29.785,29.297,34.668,33.691,-3.906
1689860545.822,41.992,33.691,36.621,38.574,43.945
1689860545.826,54.199,29.785,40.527,46.875,79.102
1689860545.830,54.199,26.367,38.574,49.805,-1.953
1689860545.833,53.223,29.785,38.086,47.852,-24.902
1689860545.837,50.781,32.227,37.598,40.039,-20.996
1689860545.841,55.176,36.621,33.203,41.504,3.906
1689860545.845,68.848,39.062,28.809,50.293,1.465
1689860545.849,68.359,36.133,29.785,48.340,17.090
1689860545.853,54.688,33.691,32.715,45.898,58.105
1689860545.857,45.898,35.156,36.621,46.387,16.602
1689860545.861,53.711,36.133,38.086,44.922,38.086
1689860545.865,65.430,35.645,37.109,53.711,74.707
1689860545.869,62.012,33.203,39.062,65.430,105.469
1689860545.873,60.059,30.762,41.016,60.059,111.816
1689860545.876,46.387,28.320,40.039,46.875,37.598
1689860545.880,41.016,27.832,38.086,40.527,25.391
1689860545.884,55.176,29.297,35.645,48.340,26.855
1689860545.888,52.246,24.414,34.180,57.617,40.527
1689860545.892,42.969,23.438,34.668,46.875,5.371
1689860545.896,41.504,27.344,34.668,45.898,-45.410
1689860545.900,39.062,26.855,33.203,45.410,2.441
1689860545.904,45.898,23.926,37.598,44.434,34.180
1689860545.908,53.711,28.809,40.039,59.570,87.891
1689860545.912,53.223,33.691,38.086,64.941,61.523
1689860545.916,44.922,31.738,35.156,51.270,12.695
1689860545.919,43.945,32.715,34.668,41.016,19.043
1689860545.923,52.246,29.785,34.180,42.480,-9.277
1689860545.927,55.664,29.297,31.738,46.875,37.109
1689860545.931,48.340,31.250,31.738,45.410,88.867
1689860545.935,36.133,33.203,34.668,31.738,19.043
1689860545.939,34.668,34.668,36.621,19.531,27.832
1689860545.943,45.898,32.227,38.086,24.414,78.613
1689860545.947,53.711,27.832,37.598,38.574,102.539
1689860545.951,44.434,24.902,41.016,41.504,60.059
1689860545.955,30.762,22.949,38.086,31.738,-33.203
1689860545.958,26.855,23.926,37.109,23.926,-19.043
1689860545.962,35.156,26.367,41.992,27.832,8.301
1689860545.966,47.363,25.879,41.504,37.598,-26.855
1689860545.970,48.828,26.855,40.527,46.387,44.434
1689860545.974,37.109,27.344,40.527,40.039,66.406
1689860545.978,31.738,30.762,39.551,33.203,-5.859
1689860545.982,41.992,32.227,40.039,33.203,28.809
1689860545.986,51.758,27.832,39.551,42.969,78.125
1689860545.990,49.316,27.344,36.621,49.805,51.758
1689860545.994,39.062,28.809,38.574,45.410,28.809
1689860545.998,35.645,28.809,39.551,40.039,18.555
1689860546.001,41.016,29.297,41.992,46.387,16.602
1689860546.005,41.504,27.832,41.992,49.805,45.410
1689860546.009,39.062,24.902,34.180,43.945,51.758
1689860546.013,28.809,23.926,36.133,41.992,43.457
1689860546.017,19.043,24.902,41.504,32.227,48.340
1689860546.021,21.973,24.902,41.992,23.926,21.973
1689860546.025,36.133,25.879,41.016,34.668,41.016
1689860546.029,48.828,24.902,38.574,47.363,14.160
1689860546.033,53.223,23.926,39.062,55.664,5.859
1689860546.037,49.805,24.414,41.016,53.711,46.387
1689860546.040,40.039,26.367,37.598,30.273,15.625
1689860546.044,30.762,31.738,31.738,19.531,27.832
1689860546.048,31.250,33.203,32.715,29.785,39.551
1689860546.052,31.738,32.227,31.738,31.250,62.988
1689860546.056,25.879,24.414,32.715,20.020,15.137
1689860546.060,24.414,19.043,37.598,21.484,-35.156
1689860546.064,35.645,20.996,41.504,38.086,45.898
1689860546.068,46.875,21.973,44.922,48.340,31.250
1689860546.072,41.992,24.902,41.504,44.922,-19.531
1689860546.076,37.109,24.414,38.086,38.086,-22.461
1689860546.080,38.574,26.855,43.945,41.992,-15.625
1689860546.083,48.828,31.250,46.387,50.781,-17.090
1689860546.087,56.641,29.297,41.992,61.035,-20.508
1689860546.091,45.898,26.367,41.016,60.059,34.180
1689860546.095,36.133,25.879,40.039,53.711,29.297
1689860546.099,35.156,25.879,40.039,49.805,-56.641
1689860546.103,42.480,23.438,38.574,51.270,-40.527
1689860546.107,51.758,24.414,36.133,61.523,48.340
1689860546.111,50.781,25.879,40.039,67.871,44.434
1689860546.115,39.062,22.461,43.945,54.688,-16.602
1689860546.119,34.180,26.367,40.039,41.016,8.789
1689860546.122,45.410,31.250,36.621,43.945,39.551
1689860546.126,54.688,31.250,40.039,46.875,58.105
1689860546.130,49.805,34.180,38.574,48.828,97.656
1689860546.134,42.480,39.062,32.715,40.039,58.594
1689860546.138,39.551,37.598,35.645,20.996,-16.113
1689860546.142,51.758,36.133,40.039,21.484,-38.086
1689860546.146,67.871,39.062,41.016,30.762,19.531
1689860546.150,66.895,39.551,39.551,36.133,27.344
1689860546.154,55.176,37.598,37.109,29.297,-8.789
1689860546.158,41.504,36.621,39.551,16.113,15.137
1689860546.162,41.016,36.133,39.551,22.461,25.391
1689860546.165,48.828,35.645,39.062,38.086,1.465
1689860546.169,38.086,30.273,39.551,37.598,17.090
1689860546.173,25.391,28.320,40.039,31.738,13.184
1689860546.177,24.902,31.250,40.527,26.367,-21.484
1689860546.181,28.809,26.855,36.133,26.367,10.742
1689860546.185,41.504,25.879,39.062,40.527,37.109
1689860546.189,43.457,28.809,41.504,53.223,45.898
1689860546.193,31.738,27.832,35.645,48.340,104.492
1689860546.197,25.391,28.809,36.621,39.062,92.285
1689860546.201,24.414,27.832,41.504,36.621,-15.137
1689860546.205,35.156,29.785,41.504,45.410,18.066
1689860546.208,39.551,30.273,41.016,52.246,29.297
1689860546.212,27.832,29.297,42.480,43.457,47.852
1689860546.216,16.602,28.809,45.410,30.273,72.754
1689860546.220,24.414,28.320,46.387,29.297,28.809
1689860546.224,42.969,23.438,44.922,42.480,10.254
1689860546.228,47.852,21.484,42.480,54.199,6.348
1689860546.232,42.969,22.461,38.086,51.758,-16.602
1689860546.236,40.039,21.484,35.156,38.086,-92.285
1689860546.240,46.875,29.297,36.133,40.039,-46.387
1689860546.244,59.570,33.691,34.180,48.828,20.508
1689860546.248,62.988,31.738,33.691,53.223,-4.395
1689860546.251,57.617,31.738,35.645,52.246,28.320
1689860546.255,46.875,31.250,38.574,41.992,15.137
1689860546.259,42.969,29.785,38.574,36.621,19.531
1689860546.263,53.711,30.762,36.133,45.898,120.605
1689860546.267,56.641,29.785,36.133,55.664,93.262
1689860546.271,49.316,29.785,37.109,48.828,28.809
1689860546.275,39.062,28.809,41.504,38.086,47.363
1689860546.279,35.156,27.344,43.457,35.156,15.625
1689860546.283,46.875,28.320,39.062,37.109,-12.695
1689860546.287,58.594,25.391,36.133,46.387,-9.766
1689860546.290,56.641,25.391,39.551,56.152,6.836
1689860546.294,43.457,27.344,40.527,45.898,34.180
1689860546.298,36.133,27.832,38.574,39.062,27.832
1689860546.302,45.410,29.297,38.086,51.270,20.996
1689860546.306,52.246,30.762,41.992,59.082,-50.293
1689860546.310,48.828,29.297,41.016,60.059,-20.996
1689860546.314,41.016,26.855,40.039,51.270,37.109
1689860546.318,35.645,28.320,41.992,43.457,-4.395
1689860546.322,41.504,28.809,39.551,44.922,-26.367
1689860546.326,48.340,26.367,38.086,54.199,5.371
1689860546.330,49.805,26.855,33.691,61.035,56.641
1689860546.333,36.621,28.320,34.180,53.711,28.320
1689860546.337,35.156,17.578,34.668,45.898,40.039
1689860546.341,73.730,19.043,24.902,68.359,76.660
1689860546.345,82.031,26.367,35.156,84.473,81.543
1689860546.349,44.434,20.020,53.223,65.430,80.078
1689860546.353,32.715,19.531,47.363,53.711,41.992
1689860546.357,40.527,19.043,41.016,51.270,-8.301
1689860546.361,57.617,15.625,36.621,62.500,-24.902
1689860546.365,70.312,14.648,41.992,73.730,-84.961
1689860546.369,70.801,8.301,45.898,74.219,-82.031
1689860546.373,71.289,5.859,42.969,78.613,11.230
1689860546.376,59.082,9.277,43.457,63.965,47.852
1689860546.380,73.730,14.160,36.621,70.801,20.996
1689860546.384,88.867,20.508,35.156,81.055,52.734
1689860546.388,70.312,20.508,36.621,69.336,48.828
1689860546.392,62.500,20.508,30.762,65.918,8.789
1689860546.396,56.152,16.602,35.156,62.012,30.762
1689860546.400,55.664,15.137,38.086,58.105,-45.410
1689860546.404,70.312,17.578,33.203,64.453,-62.988
1689860546.408,72.266,18.555,30.273,76.660,13.672
1689860546.412,69.824,20.020,29.785,78.125,39.062
1689860546.415,62.988,22.949,26.855,70.801,81.543
1689860546.419,56.641,25.391,27.832,65.918,92.285
1689860546.423,68.359,28.320,32.227,72.266,91.309
1689860546.427,70.312,28.809,31.250,79.102,35.156
1689860546.431,62.988,26.367,34.180,75.195,2.441
1689860546.435,51.270,22.461,35.645,63.477,-40.527
1689860546.439,42.969,21.973,37.598,58.594,-102.539
1689860546.443,57.129,24.414,39.551,62.988,-21.484
1689860546.447,64.453,22.949,36.621,73.242,-2.930
1689860546.451,57.617,22.949,36.621,73.242,15.137
1689860546.455,49.805,27.344,40.527,64.941,46.387
1689860546.458,45.410,30.273,39.551,60.059,-29.785
1689860546.462,58.594,33.691,36.133,61.523,4.395
1689860546.466,66.406,36.621,35.156,72.754,16.602
1689860546.470,54.688,35.156,37.598,71.289,46.875
1689860546.474,41.992,33.691,41.504,51.270,35.156
1689860546.478,41.992,34.668,39.062,40.039,-25.879
1689860546.482,51.758,37.109,34.668,46.875,16.113
1689860546.486,58.105,38.086,35.645,59.082,39.551
1689860546.490,64.941,40.527,38.086,65.918,26.367
1689860546.494,54.199,40.527,38.086,60.547,62.988
1689860546.497,39.062,35.156,36.621,53.223,109.375
1689860546.501,45.898,33.203,38.574,55.664,48.340
1689860546.505,60.547,32.715,40.039,65.430,3.418
1689860546.509,64.453,29.785,39.551,66.895,25.391
1689860546.513,56.152,32.227,40.527,65.430,36.133
1689860546.517,51.758,34.668,41.016,59.082,28.809
1689860546.521,62.988,33.691,39.062,52.246,-4.395
1689860546.525,73.730,32.715,36.621,57.617,-7.324
1689860546.529,68.359,34.668,36.621,55.664,20.996
1689860546.533,55.176,35.645,38.086,53.223,-33.691
1689860546.537,52.734,35.156,42.480,53.223,-3.418
1689860546.540,55.664,33.203,44.434,47.852,60.059
1689860546.544,61.035,32.227,39.062,53.711,48.340
1689860546.548,62.988,33.691,40.039,54.199,79.102
1689860546.552,55.176,33.691,43.945,46.387,31.738
1689860546.556,44.434,34.180,42.969,43.457,18.555
1689860546.560,41.992,31.250,41.992,36.621,11.230
1689860546.564,54.688,31.738,40.527,42.480,27.344
1689860546.568,57.617,34.180,40.039,48.828,56.152
1689860546.572,44.434,32.227,39.551,43.457,14.648
1689860546.576,34.180,34.180,38.574,36.621,70.312
1689860546.580,32.715,32.715,40.039,34.180,44.434
1689860546.583,43.945,25.391,40.039,40.527,4.395
1689860546.587,66.895,16.602,38.086,66.406,41.016
1689860546.591,75.684,15.625,50.293,91.797,70.801
1689860546.595,44.434,28.809,47.852,59.082,64.941
1689860546.599,21.484,33.691,32.227,19.043,50.293
1689860546.603,35.156,27.832,32.715,20.996,20.020
1689860546.607,47.363,23.438,28.809,34.668,16.602
1689860546.611,51.758,22.461,30.273,50.293,-0.488
1689860546.615,24.414,19.043,36.133,32.227,-42.480
1689860546.619,0.488,12.695,37.109,12.695,18.066
1689860546.623,27.344,15.625,41.992,32.227,44.434
1689860546.626,47.363,18.555,43.457,52.734,48.828
1689860546.630,47.363,15.625,41.016,60.059,-0.488
1689860546.634,39.551,14.648,38.574,53.711,-34.180
1689860546.638,33.203,18.555,40.527,47.852,-30.273
1689860546.642,50.781,20.508,41.504,53.223,-8.301
1689860546.646,70.801,21.484,37.598,61.035,2.930
1689860546.650,70.801,23.438,38.574,73.242,28.320
1689860546.654,66.406,24.902,44.922,77.148,56.152
1689860546.658,64.453,27.344,47.852,70.312,38.574
1689860546.662,68.359,27.832,49.316,76.660,87.891
1689860546.665,72.754,23.926,46.387,78.613,125.977
1689860546.669,72.754,22.461,44.434,82.031,46.875
1689860546.673,68.359,26.367,50.293,89.355,6.348
1689860546.677,59.082,31.250,50.781,77.637,8.301
1689860546.681,63.965,35.156,50.781,70.312,0.000
1689860546.685,76.172,39.551,49.805,65.430,-20.508
1689860546.689,72.266,39.062,42.480,64.941,-0.977
1689860546.693,59.570,37.109,40.527,64.941,21.484
1689860546.697,51.270,37.109,41.016,48.828,-23.926
1689860546.701,50.781,37.598,37.598,42.480,-21.973
1689860546.705,63.477,36.621,32.227,47.363,2.441
1689860546.708,65.918,33.203,35.645,56.152,5.371
1689860546.712,50.293,32.227,40.527,51.270,3.906
1689860546.716,39.062,29.785,41.992,39.551,9.766
1689860546.720,34.668,27.344,41.504,35.156,67.871
1689860546.724,42.969,29.297,42.480,35.645,92.285
1689860546.728,49.805,29.297,38.574,46.875,24.414
1689860546.732,42.480,28.809,33.691,47.363,32.227
1689860546.736,36.621,28.320,40.527,39.551,39.062
1689860546.740,39.062,27.344,44.922,42.480,45.410
1689860546.744,58.105,26.855,43.945,48.828,54.688
1689860546.747,68.848,26.367,45.410,58.105,40.527
1689860546.751,59.082,25.391,44.922,63.477,89.844
1689860546.755,56.152,26.367,44.922,59.082,76.660
1689860546.759,62.012,26.367,48.340,61.523,42.969
1689860546.763,75.195,24.902,51.758,60.059,55.664
1689860546.767,91.797,28.809,52.734,69.824,31.250
1689860546.771,91.797,31.738,48.828,80.078,60.547
1689860546.775,68.848,32.715,53.223,62.500,81.543
1689860546.779,51.270,34.668,58.594,45.410,43.457
1689860546.783,63.965,33.203,51.758,51.270,16.602
1689860546.787,86.914,33.203,48.340,72.266,-2.930
1689860546.790,80.078,32.227,54.688,77.637,-10.742
1689860546.794,62.500,32.715,54.688,62.988,-6.348
1689860546.798,60.059,36.621,49.805,55.176,-9.277
1689860546.802,66.406,36.133,50.781,57.617,53.711
1689860546.806,73.730,39.551,49.805,63.477,39.062
1689860546.810,70.801,43.457,44.922,68.359,-8.301
1689860546.814,60.547,38.086,44.922,62.988,-19.043
1689860546.818,54.199,34.180,46.875,54.199,-16.602
1689860546.822,67.871,34.668,48.828,56.152,30.762
1689860546.826,77.148,35.156,48.828,64.941,24.414
1689860546.829,69.824,33.691,49.316,75.684,36.621
1689860546.833,53.711,34.180,50.293,67.383,-8.301
1689860546.837,40.039,36.133,50.293,59.082,10.254
1689860546.841,42.969,36.621,45.410,61.035,75.684
1689860546.845,51.270,35.645,41.992,64.941,27.832
1689860546.849,51.270,36.621,45.898,72.754,16.113
1689860546.853,39.062,40.039,45.410,66.406,37.109
1689860546.857,31.738,38.574,40.527,51.758,21.973
1689860546.861,26.855,33.691,39.062,33.691,0.488
1689860546.865,29.785,34.668,37.109,29.785,20.020
1689860546.869,38.086,36.133,33.691,40.039,20.996
1689860546.872,30.762,31.738,35.156,38.574,-9.277
1689860546.876,23.926,31.738,40.039,29.785,19.531
1689860546.880,29.785,32.227,43.945,27.344,0.000
1689860546.884,44.922,28.809,42.969,39.062,-39.062
1689860546.888,45.410,26.367,41.016,50.781,-24.902
1689860546.892,41.992,24.902,41.016,48.340,-25.391
1689860546.896,41.992,22.949,45.898,44.434,1.953
1689860546.900,36.621,23.438,46.387,41.992,48.828
1689860546.904,49.316,23.926,46.387,46.387,35.645
1689860546.908,57.129,20.996,51.270,60.547,-12.695
1689860546.912,50.781,22.949,50.781,62.012,27.344
1689860546.915,43.457,27.344,46.875,51.270,50.293
1689860546.919,45.410,26.855,44.434,43.457,35.156
1689860546.923,58.594,27.832,44.922,50.781,96.680
1689860546.927,65.430,27.344,40.039,63.477,74.707
1689860546.931,62.988,22.949,36.133,61.035,48.828
1689860546.935,54.688,25.879,41.016,51.758,45.898
1689860546.939,52.734,27.832,38.574,51.270,45.898
1689860546.943,64.453,23.438,36.621,55.664,62.500
1689860546.947,66.895,25.879,39.062,53.711,39.062
1689860546.951,61.523,30.762,36.621,45.898,6.348
1689860546.955,56.152,32.227,37.598,41.992,-3.418
1689860546.958,48.340,33.691,34.668,37.109,-20.996
1689860546.962,56.641,32.715,31.738,38.574,0.488
1689860546.966,66.406,34.180,38.086,47.363,27.344
1689860546.970,60.547,37.598,41.504,47.852,46.875
1689860546.974,47.852,36.133,38.086,33.691,26.367
1689860546.978,40.527,38.086,35.645,22.949,70.312
1689860546.982,45.898,42.480,33.691,26.855,72.754
1689860546.986,44.922,37.109,26.367,39.551,27.344
1689860546.990,39.062,33.691,22.949,40.039,20.508
1689860546.994,29.297,36.133,24.902,29.785,24.902
1689860546.997,16.113,32.715,28.320,21.973,10.254
1689860547.001,24.902,31.250,27.344,22.461,-30.762
1689860547.005,41.504,32.715,25.879,34.668,-15.625
1689860547.009,42.480,33.691,27.344,40.527,9.277
1689860547.013,29.297,33.203,28.809,29.785,17.578
1689860547.017,24.902,33.691,27.344,19.531,-19.043
1689860547.021,37.109,32.715,28.320,27.344,-21.973
1689860547.025,45.410,32.227,32.715,34.668,40.039
1689860547.029,47.363,31.250,31.738,37.109,46.387
1689860547.033,41.016,29.297,31.250,34.180,30.273
1689860547.037,31.250,28.809,30.762,24.902,64.453
1689860547.040,31.250,26.855,33.203,25.879,66.406
1689860547.044,41.504,24.902,32.227,35.156,47.363
1689860547.048,46.387,24.414,28.320,43.945,25.879
1689860547.052,38.086,25.879,32.227,40.039,12.207
1689860547.056,28.320,27.344,37.109,27.832,41.504
1689860547.060,35.645,29.785,37.598,25.391,42.480
1689860547.064,53.223,33.691,37.109,34.668,-9.766
1689860547.068,53.711,37.109,35.156,49.316,53.223
1689860547.072,40.039,38.086,32.227,41.016,51.758
1689860547.076,32.715,37.598,33.203,24.414,-9.277
1689860547.080,31.250,34.180,37.598,27.344,16.113
1689860547.083,40.527,33.691,41.992,35.156,35.156
1689860547.087,50.781,34.668,42.480,47.852,7.324
1689860547.091,44.434,34.180,41.504,52.734,1.953
1689860547.095,37.598,30.273,41.504,43.457,62.500
1689860547.099,40.039,28.809,38.086,39.062,18.066
1689860547.103,51.270,28.809,35.156,43.945,-15.625
1689860547.107,59.082,28.809,36.621,51.758,13.672
1689860547.111,58.105,32.227,34.180,58.105,28.809
1689860547.115,46.387,31.738,36.133,51.758,16.602
1689860547.119,37.598,28.809,38.086,43.457,27.832
1689860547.122,52.734,31.738,36.621,54.199,28.809
1689860547.126,60.059,33.691,31.738,62.988,20.508
1689860547.130,50.293,31.738,32.715,61.523,86.914
1689860547.134,39.062,28.320,40.039,52.734,47.363
1689860547.138,34.180,26.367,41.992,38.574,-61.035
1689860547.142,37.598,24.414,41.992,34.668,-23.926
1689860547.146,39.551,22.949,41.016,43.457,34.180
1689860547.150,32.715,25.879,38.086,41.504,63.477
1689860547.154,19.043,25.391,35.645,27.832,68.359
1689860547.158,12.695,23.926,36.133,18.066,21.484
1689860547.162,17.090,20.996,33.691,16.113,37.109
1689860547.165,25.391,20.508,28.809,24.414,54.199
1689860547.169,27.832,24.902,30.762,38.086,27.832
1689860547.173,17.090,23.926,34.668,34.668,28.320
1689860547.177,8.789,21.973,38.574,16.602,-5.859
1689860547.181,16.602,20.508,39.551,19.531,16.602
1689860547.185,30.762,24.902,32.715,33.203,101.074
1689860547.189,33.691,25.391,38.574,37.598,75.195
1689860547.193,24.414,23.926,45.410,36.621,42.969
1689860547.197,17.578,25.391,42.969,31.250,70.801
1689860547.201,17.578,20.020,40.039,28.320,16.113
1689860547.204,21.973,20.020,40.527,38.086,-24.902
1689860547.208,20.508,23.438,41.016,44.434,20.508
1689860547.212,14.160,20.508,39.551,36.621,3.906
1689860547.216,4.883,19.043,41.504,26.855,29.297
1689860547.220,6.348,20.996,45.410,29.785,56.641
1689860547.224,21.484,23.926,45.410,40.039,-9.766
1689860547.228,29.785,25.879,41.992,45.898,-16.113
1689860547.232,23.926,26.367,41.016,44.922,19.043
1689860547.236,16.113,29.297,39.062,31.738,41.016
1689860547.240,19.043,32.227,42.480,26.855,-13.672
1689860547.244,35.645,36.621,42.480,34.668,18.555
1689860547.247,47.852,36.133,41.992,44.434,82.520
1689860547.251,46.387,36.621,44.922,49.316,18.066
1689860547.255,48.828,40.527,41.504,41.992,-47.363
1689860547.259,54.199,38.574,37.598,40.039,13.184
1689860547.263,61.523,35.645,37.109,45.898,42.969
1689860547.267,68.359,31.738,38.574,58.594,-3.906
1689860547.271,62.500,30.273,40.527,62.012,-10.254
1689860547.275,52.734,32.715,38.086,52.246,43.945
1689860547.279,49.316,33.203,36.133,48.828,62.012
1689860547.283,50.293,32.715,32.227,46.387,0.977
1689860547.287,50.781,31.738,30.273,44.922,26.367
1689860547.290,44.922,33.203,34.668,45.410,50.781
1689860547.294,26.855,31.738,32.715,33.203,31.250
1689860547.298,10.254,32.227,31.738,15.625,36.621
1689860547.302,20.020,32.715,33.203,15.625,21.484
1689860547.306,30.762,31.250,31.738,25.391,12.207
1689860547.310,24.902,34.180,31.738,27.344,5.371
1689860547.314,15.137,38.086,34.180,23.926,43.457
1689860547.318,15.137,39.551,32.715,18.066,55.664
1689860547.322,25.391,38.574,30.273,19.531,50.293
1689860547.326,39.062,37.109,33.203,32.227,13.672
1689860547.329,44.922,34.180,35.156,43.457,-22.949
1689860547.333,44.922,33.691,37.598,39.551,86.914
1689860547.337,47.852,37.598,38.574,29.785,63.477
1689860547.341,55.664,38.086,32.715,37.598,52.246
1689860547.345,65.918,37.109,33.691,45.898,103.027
1689860547.349,66.406,35.645,35.645,45.898,37.598
1689860547.353,53.223,37.109,38.574,41.016,4.395
1689860547.357,45.410,34.668,41.016,32.227,51.758
1689860547.361,48.340,31.250,39.551,36.133,69.824
1689860547.365,54.199,33.203,40.039,44.434,38.086
1689860547.369,55.664,34.668,42.480,50.293,30.762
1689860547.372,48.828,33.203,44.922,51.758,32.715
1689860547.376,36.133,33.691,46.875,41.016,35.156
1689860547.380,37.598,31.738,48.828,37.598,-2.930
1689860547.384,53.223,27.344,43.457,52.246,-22.461
1689860547.388,54.688,28.320,44.434,61.523,34.668
1689860547.392,42.480,27.344,46.875,53.711,1.953
1689860547.396,32.715,23.926,48.340,46.875,-22.949
1689860547.400,35.645,25.879,51.270,42.969,-23.438
1689860547.404,45.898,29.785,48.340,49.805,-28.809
1689860547.408,45.898,30.273,45.898,58.105,10.742
1689860547.412,32.227,28.320,45.410,47.852,29.297
1689860547.415,21.973,28.320,44.922,42.969,49.805
1689860547.419,19.531,29.297,42.480,39.062,30.762
1689860547.423,31.250,29.785,41.504,39.551,10.254
1689860547.427,38.086,27.832,38.574,48.828,32.715
1689860547.431,27.832,26.367,36.133,44.434,-3.418
1689860547.435,19.043,29.297,34.180,33.203,24.414
1689860547.439,21.484,27.832,28.320,20.996,57.617
1689860547.443,32.227,28.809,24.414,26.855,31.738
1689860547.447,43.457,33.203,24.902,42.969,11.719
1689860547.451,43.945,34.668,28.809,41.504,16.113
1689860547.454,38.574,34.668,32.227,31.250,-14.160
1689860547.458,36.621,33.203,33.203,24.414,20.996
1689860547.462,51.270,33.691,30.762,28.320,30.273
1689860547.466,66.406,37.109,27.832,41.016,45.410
1689860547.470,63.965,39.062,28.320,47.363,92.285
1689860547.474,60.059,39.551,32.715,47.363,18.555
1689860547.478,55.664,41.992,34.180,48.340,-56.152
1689860547.482,60.547,40.527,36.133,52.246,31.250
1689860547.486,70.801,38.086,38.086,54.199,80.566
1689860547.490,65.430,42.969,37.109,58.594,-10.742
1689860547.494,55.176,45.410,43.945,55.664,1.953
1689860547.497,49.316,38.086,42.480,38.086,40.527
1689860547.501,53.711,30.762,38.574,38.086,52.734
1689860547.505,64.453,33.691,46.387,47.363,32.227
1689860547.509,62.500,34.668,47.363,47.852,10.254
1689860547.513,50.781,30.273,45.410,44.922,-22.461
1689860547.517,42.969,30.273,46.875,37.598,-48.828
1689860547.521,53.223,32.227,45.410,41.504,7.812
1689860547.525,69.336,33.691,42.969,58.594,37.598
1689860547.529,68.359,37.109,44.434,61.523,-17.578
1689860547.533,58.594,35.645,46.875,53.711,-21.484
1689860547.536,49.316,30.273,44.434,43.457,52.734
1689860547.540,49.316,30.273,41.992,36.621,30.273
1689860547.544,60.059,32.715,41.016,44.434,31.250
1689860547.548,59.570,37.598,41.992,50.293,41.992
1689860547.552,43.945,39.551,40.039,41.992,26.367
1689860547.556,48.340,31.250,38.574,56.641,55.664
1689860547.560,69.824,32.227,43.945,78.125,14.160
1689860547.564,67.871,47.852,38.086,66.895,-13.672
1689860547.568,51.758,53.223,24.902,45.898,50.293
1689860547.572,41.992,50.781,21.484,34.180,35.156
1689860547.576,33.691,41.504,24.414,28.809,27.832
1689860547.579,29.297,38.086,32.227,27.832,62.500
1689860547.583,29.785,39.062,35.645,24.902,60.547
1689860547.587,34.668,35.156,35.645,33.691,22.949
1689860547.591,35.645,35.645,34.180,44.434,9.766
1689860547.595,38.086,34.668,33.203,42.480,31.738
1689860547.599,41.016,35.156,36.133,40.039,70.801
1689860547.603,57.617,36.133,37.598,51.270,63.965
1689860547.607,65.430,34.668,40.527,56.641,8.301
1689860547.611,53.223,34.180,41.504,58.105,-2.930
1689860547.615,43.945,32.715,41.016,47.852,20.508
1689860547.619,41.992,31.250,38.574,35.156,27.832
1689860547.622,53.223,34.180,39.551,47.363,28.320
1689860547.626,59.570,33.203,44.434,59.570,6.836
1689860547.630,53.223,30.762,45.898,58.594,9.766
1689860547.634,41.016,30.762,46.387,50.781,40.039
1689860547.638,34.180,30.762,47.363,45.898,-11.230
1689860547.642,45.410,36.133,42.969,47.363,28.320
1689860547.646,57.617,37.109,40.527,56.152,59.082
1689860547.650,58.594,36.133,41.016,65.918,23.926
1689860547.654,51.270,38.086,38.086,57.617,16.113
1689860547.658,47.852,38.086,37.598,44.922,-15.137
1689860547.661,60.547,36.621,35.156,49.805,-46.387
1689860547.665,71.777,32.715,29.297,58.594,20.508
1689860547.669,64.453,30.762,32.715,57.617,43.945
1689860547.673,51.758,28.320,41.016,53.223,-19.531
1689860547.677,47.852,28.809,36.133,40.527,19.043
1689860547.681,54.199,30.762,30.762,40.527,77.148
1689860547.685,58.105,29.297,35.645,45.898,60.547
1689860547.689,54.199,32.227,38.574,51.270,41.016
1689860547.693,47.363,30.273,37.109,55.176,34.668
1689860547.697,39.062,31.250,38.574,38.086,35.156
1689860547.701,40.527,31.250,38.086,30.273,53.711
1689860547.704,55.176,25.879,35.645,38.574,49.316
1689860547.708,59.082,28.320,32.715,43.945,25.391
1689860547.712,51.758,29.297,36.133,50.781,29.785
1689860547.716,39.551,28.809,39.062,43.457,3.906
1689860547.720,36.621,30.273,38.086,36.621,4.395
1689860547.724,52.246,31.250,32.715,42.480,30.762
1689860547.728,53.711,31.738,35.156,50.293,-2.441
1689860547.732,39.062,34.180,41.504,48.828,-15.625
1689860547.736,34.180,37.598,42.969,34.668,20.996
1689860547.740,36.133,36.133,41.504,29.785,-8.789
1689860547.744,45.898,35.156,35.156,34.668,-29.297
1689860547.747,52.246,37.598,36.133,46.387,-15.137
1689860547.751,45.410,39.551,37.598,46.875,22.949
1689860547.755,39.551,41.016,33.203,35.156,52.246
1689860547.759,33.203,40.527,35.156,31.738,39.551
1689860547.763,46.387,41.016,41.016,37.109,84.961
1689860547.767,54.199,40.527,41.016,43.457,40.039
1689860547.771,39.551,37.598,35.645,41.016,-49.316
1689860547.775,31.738,37.598,32.715,33.691,-2.930
1689860547.779,28.809,37.109,32.715,28.320,36.621
1689860547.783,30.762,33.203,33.203,27.832,20.996
1689860547.786,30.273,33.203,38.086,38.574,-3.418
1689860547.790,25.879,32.715,41.992,41.992,-23.926
1689860547.794,13.184,28.320,41.992,28.320,-4.883
1689860547.798,5.859,30.762,41.504,19.043,55.664
1689860547.802,23.926,35.645,38.086,20.020,79.102
1689860547.806,32.227,35.156,36.133,31.250,-40.527
1689860547.810,29.785,33.691,35.645,40.039,-46.875
1689860547.814,30.762,32.227,36.621,38.086,17.578
1689860547.818,29.785,34.668,41.016,38.574,26.855
1689860547.822,39.551,35.156,42.969,42.480,97.656
1689860547.826,53.223,35.645,43.457,51.270,61.523
1689860547.829,55.664,35.645,41.992,60.059,33.691
1689860547.833,44.922,32.715,39.062,54.688,48.340
1689860547.837,36.133,32.715,39.551,42.969,61.035
1689860547.841,46.875,34.668,40.527,38.086,63.965
1689860547.845,57.129,32.227,42.969,43.945,21.484
1689860547.849,52.246,32.227,41.504,47.852,-9.277
1689860547.853,41.016,34.668,35.156,38.574,-9.277
1689860547.857,36.621,34.668,36.133,32.715,-2.930
1689860547.861,46.387,36.133,37.598,33.203,-8.789
1689860547.865,51.758,36.621,32.227,34.180,-8.301
1689860547.868,57.129,40.039,26.855,47.852,-10.254
1689860547.872,52.734,41.504,27.344,46.387,-7.324
1689860547.876,41.504,39.551,27.344,31.250,19.531
1689860547.880,48.828,39.551,29.785,29.785,62.012
1689860547.884,59.082,36.133,33.691,37.598,37.109
1689860547.888,60.059,34.180,34.180,49.316,-13.184
1689860547.892,58.105,35.645,36.621,53.223,27.344
1689860547.896,52.734,37.109,40.039,48.828,-1.953
1689860547.900,53.711,40.039,41.992,44.434,-56.641
1689860547.904,71.777,39.551,43.457,50.781,25.879
1689860547.908,73.242,38.574,44.434,64.941,37.109
1689860547.911,61.035,38.574,43.457,61.523,9.766
1689860547.915,48.340,34.668,43.457,45.898,-1.465
1689860547.919,43.945,33.203,45.410,33.203,-29.297
1689860547.923,54.688,33.691,44.922,38.574,-1.465
1689860547.927,54.199,30.273,43.457,54.688,71.777
1689860547.931,45.410,28.320,42.969,55.176,109.375
1689860547.935,35.645,27.344,44.922,45.898,77.148
1689860547.939,32.715,26.367,47.852,40.039,63.965
1689860547.943,42.480,25.391,49.316,41.016,41.992
1689860547.947,44.434,25.391,42.969,46.387,15.625
1689860547.951,36.133,28.320,38.086,42.480,3.906
1689860547.954,29.785,28.809,44.434,38.086,11.719
1689860547.958,28.809,29.297,46.875,38.574,15.137
1689860547.962,41.504,29.297,42.969,40.527,7.812
1689860547.966,56.152,29.785,40.527,55.176,79.102
1689860547.970,48.340,31.250,40.527,57.129,124.023
1689860547.974,35.156,33.203,39.551,49.316,41.016
1689860547.978,35.156,35.645,40.039,42.480,17.578
1689860547.982,44.434,35.156,39.551,39.551,58.594
1689860547.986,52.734,34.668,36.133,47.363,0.000
1689860547.990,53.711,38.086,35.156,55.176,-2.930
1689860547.993,45.898,39.062,39.062,47.852,-0.488
1689860547.997,35.156,35.645,40.039,28.809,-24.902
1689860548.001,39.062,31.738,36.621,25.391,31.738
1689860548.005,47.363,30.273,32.227,39.551,7.324
1689860548.009,43.457,30.762,32.715,40.527,1.465
1689860548.013,31.738,26.855,39.062,29.785,-12.695
1689860548.017,26.367,24.902,41.016,16.602,28.320
1689860548.021,34.668,26.855,41.016,16.113,58.105
1689860548.025,43.945,27.832,41.016,30.273,10.254
1689860548.029,41.016,24.414,41.016,36.133,-20.508
1689860548.033,26.367,21.973,43.457,34.180,17.090
1689860548.036,17.090,23.926,41.992,24.902,96.680
1689860548.040,26.855,25.879,39.551,24.414,64.941
1689860548.044,40.039,24.902,44.922,41.016,35.645
1689860548.048,39.551,21.973,46.875,45.410,62.012
1689860548.052,28.320,21.973,44.434,41.504,55.664
1689860548.056,20.508,25.391,42.480,31.738,53.711
1689860548.060,27.832,27.832,38.086,27.344,-14.160
1689860548.064,45.410,28.809,36.133,41.992,-50.293
1689860548.068,50.781,32.227,34.180,50.293,0.977
1689860548.072,42.969,32.715,31.738,43.945,57.617
1689860548.076,38.574,33.203,37.109,34.668,14.648
1689860548.079,42.480,32.227,39.062,34.668,-1.465
1689860548.083,54.688,27.832,38.086,38.574,2.930
1689860548.087,59.570,26.367,40.039,44.922,-2.441
1689860548.091,55.176,25.391,43.945,51.758,-1.465
1689860548.095,49.805,26.367,45.410,43.945,-51.758
1689860548.099,45.410,26.367,44.434,41.016,-48.828
1689860548.103,58.105,25.391,43.457,57.617,-14.648
1689860548.107,62.988,26.855,43.457,62.012,-15.625
1689860548.111,56.641,26.367,45.898,59.570,-20.508
1689860548.115,51.270,27.832,43.945,51.758,-9.277
1689860548.119,48.340,30.273,39.551,39.551,-17.090
1689860548.122,64.453,29.785,39.551,44.922,-5.859
1689860548.126,74.219,30.273,39.062,53.711,50.293
1689860548.130,69.336,31.250,36.621,52.734,45.898
1689860548.134,52.246,31.738,33.203,40.039,14.160
1689860548.138,36.133,30.762,31.738,30.273,55.664
1689860548.142,43.945,31.738,33.203,34.668,62.500
1689860548.146,48.340,28.320,33.203,50.781,23.926
1689860548.150,44.922,25.391,34.180,52.734,45.898
1689860548.154,38.086,25.879,35.645,37.598,98.145
1689860548.158,34.668,24.414,37.109,32.227,39.551
1689860548.161,45.410,25.879,38.086,40.527,-47.852
1689860548.165,54.688,25.391,37.598,53.223,-63.965
1689860548.169,52.246,25.879,37.109,62.500,-19.043
1689860548.173,40.039,26.367,36.621,53.223,65.430
1689860548.177,38.086,25.391,42.480,41.504,39.062
1689860548.181,49.805,26.367,46.387,47.363,19.531
1689860548.185,56.641,25.391,47.363,58.594,84.473
1689860548.189,62.012,29.785,43.945,62.500,51.758
1689860548.193,51.270,30.762,41.504,50.781,50.293
1689860548.197,40.039,30.762,43.457,43.945,98.633
1689860548.201,48.828,36.621,43.945,49.316,3.906
1689860548.204,53.711,35.156,42.969,56.152,-10.742
1689860548.208,49.316,28.809,41.016,61.035,39.551
1689860548.212,39.062,30.762,39.551,54.688,21.484
1689860548.216,29.297,30.762,42.480,46.387,-4.395
1689860548.220,31.738,27.344,36.621,42.969,23.438
1689860548.224,42.969,29.785,33.203,43.945,79.102
1689860548.228,43.945,28.809,39.062,50.781,27.832
1689860548.232,36.133,27.832,38.574,51.758,23.438
1689860548.236,29.297,29.785,42.969,44.922,-5.371
1689860548.240,30.273,30.273,44.434,42.969,15.137
1689860548.243,40.039,32.227,41.016,49.805,32.227
1689860548.247,44.434,32.715,35.156,55.176,43.457
1689860548.251,41.504,31.738,36.621,54.199,96.191
1689860548.255,35.645,30.762,43.945,48.340,40.039
1689860548.259,38.574,29.785,44.922,49.316,2.930
1689860548.263,52.246,31.250,43.945,51.758,-9.277
1689860548.267,54.688,29.297,40.527,52.734,-20.996
1689860548.271,49.316,26.855,41.504,53.711,-8.789
1689860548.275,45.898,26.855,38.574,46.387,0.000
1689860548.279,47.852,27.832,35.645,36.621,-6.836
1689860548.283,55.664,24.414,40.039,39.551,19.531
1689860548.286,53.711,22.949,41.504,52.246,70.312
1689860548.290,47.852,26.367,41.016,46.387,74.219
1689860548.294,41.016,24.902,41.992,29.785,76.660
1689860548.298,36.621,24.902,39.551,24.414,46.875
1689860548.302,47.363,27.832,36.133,33.691,66.406
1689860548.306,55.664,29.297,34.668,48.340,47.363
1689860548.310,49.805,30.273,37.598,47.363,0.977
1689860548.314,41.504,29.297,40.039,45.410,54.199
1689860548.318,39.551,31.738,40.527,46.387,64.453
1689860548.322,49.316,30.762,40.527,42.480,41.016
1689860548.326,55.664,26.855,37.598,46.875,2.441
1689860548.329,45.410,27.344,32.715,49.316,3.418
1689860548.333,37.109,31.250,32.227,46.387,38.574
1689860548.337,33.691,32.715,38.086,41.016,13.184
1689860548.341,40.039,32.227,41.504,44.922,20.996
1689860548.345,47.363,33.691,41.016,50.293,2.930
1689860548.349,42.969,33.203,39.551,46.875,-10.742
1689860548.353,37.598,33.203,41.016,37.598,27.344
1689860548.357,37.109,36.621,42.969,31.738,-21.973
1689860548.361,46.387,41.504,43.457,34.180,28.320
1689860548.365,57.129,38.086,41.504,41.504,45.898
1689860548.368,60.059,34.668,38.086,51.270,23.438
1689860548.372,51.758,37.109,39.551,48.828,-29.785
1689860548.376,42.480,35.645,41.016,42.480,-24.414
1689860548.380,49.316,30.273,41.504,47.363,-15.137
1689860548.384,64.453,29.785,38.574,55.664,11.719
1689860548.388,58.594,28.809,37.109,56.641,96.191
1689860548.392,50.293,29.297,42.969,50.293,30.762
1689860548.396,46.387,30.273,47.852,47.852,-41.992
1689860548.400,46.875,29.785,44.922,45.410,0.000
1689860548.404,59.570,27.832,43.945,51.270,63.477
1689860548.408,61.523,26.855,44.922,60.547,83.008
1689860548.411,51.758,29.785,42.480,56.641,70.801
1689860548.415,43.457,30.762,41.992,52.246,-0.488
1689860548.419,45.410,32.715,41.992,54.199,-4.883
1689860548.423,56.152,30.273,39.062,59.570,27.344
1689860548.427,58.105,28.320,35.156,64.453,-14.160
1689860548.431,47.363,26.367,38.086,56.152,-48.340
1689860548.435,35.645,26.367,44.922,47.363,-47.852
1689860548.439,35.156,27.344,41.992,42.969,18.066
1689860548.443,49.316,24.902,38.086,44.922,14.648
1689860548.447,52.734,25.391,42.969,54.688,29.785
1689860548.451,43.457,26.855,46.875,54.688,78.125
1689860548.454,37.109,27.344,48.340,50.293,79.590
1689860548.458,36.133,25.879,46.387,50.781,106.934
1689860548.462,47.852,25.391,42.969,52.246,67.383
1689860548.466,54.688,27.832,44.922,58.594,29.297
1689860548.470,47.363,26.855,47.852,59.082,40.527
1689860548.474,39.551,26.367,45.410,46.387,5.859
1689860548.478,38.086,29.785,43.945,36.621,16.602
1689860548.482,48.828,28.809,43.457,41.992,18.066
1689860548.486,52.734,25.391,43.457,50.781,31.738
1689860548.490,43.945,27.832,41.992,53.711,66.895
1689860548.493,36.133,27.344,41.992,46.387,51.758
1689860548.497,31.738,27.344,44.434,38.574,21.973
1689860548.501,37.109,25.879,44.434,42.969,10.254
1689860548.505,45.898,26.855,44.922,52.734,52.246
1689860548.509,44.922,34.180,41.992,56.641,77.637
1689860548.513,33.691,34.668,38.574,42.480,57.129
1689860548.517,30.273,33.203,38.574,31.738,3.906
1689860548.521,37.598,35.156,36.621,33.203,-42.480
1689860548.525,40.527,34.668,35.645,39.062,14.160
1689860548.529,39.551,32.227,36.621,45.898,60.547
1689860548.533,32.715,28.809,33.203,39.062,-12.207
1689860548.536,21.484,25.391,32.227,28.320,-15.625
1689860548.540,25.879,25.879,33.203,28.320,8.301
1689860548.544,40.039,30.273,28.320,35.156,70.312
1689860548.548,36.133,33.203,27.344,36.621,78.613
1689860548.552,25.391,31.250,31.738,28.809,59.570
1689860548.556,20.508,30.273,36.133,25.879,61.523
1689860548.560,23.438,31.738,36.621,20.996,0.000
1689860548.564,32.227,28.809,35.645,17.578,8.789
1689860548.568,30.273,25.391,37.598,25.391,-4.395
1689860548.572,20.996,25.879,39.551,26.367,-7.324
1689860548.576,16.602,28.320,40.527,18.555,31.250
1689860548.579,23.438,27.832,41.016,18.066,40.039
1689860548.583,36.133,27.832,41.992,25.391,-28.320
1689860548.587,37.109,30.762,44.922,34.180,-47.363
1689860548.591,31.250,30.762,43.457,37.109,-27.344
1689860548.595,29.297,29.297,40.039,28.809,-75.684
1689860548.599,31.250,32.715,43.945,27.344,38.086
1689860548.603,41.504,30.762,43.945,36.133,78.125
1689860548.607,45.898,26.855,41.504,42.969,-38.086
1689860548.611,42.480,27.344,44.922,43.457,-79.102
1689860548.615,39.062,27.832,45.410,41.992,-26.855
1689860548.618,40.039,27.832,45.410,43.457,-15.137
1689860548.622,55.176,30.273,44.434,55.176,-26.855
1689860548.626,62.500,31.250,45.898,69.336,-22.949
1689860548.630,54.688,29.297,52.246,72.754,-42.969
1689860548.634,45.898,26.367,50.781,67.871,27.344
1689860548.638,45.898,26.367,47.852,58.594,41.504
1689860548.642,56.152,25.879,48.828,59.082,11.719
1689860548.646,58.105,26.855,50.293,67.383,44.922
1689860548.650,53.223,29.785,44.922,67.383,35.645
1689860548.654,47.363,33.203,40.527,59.570,16.113
1689860548.658,43.457,36.133,43.457,51.758,45.410
1689860548.661,57.617,37.598,43.457,50.781,55.176
1689860548.665,59.082,38.086,41.016,52.734,41.016
1689860548.669,54.199,40.039,35.645,54.199,97.168
1689860548.673,54.199,42.480,37.598,44.922,99.609
1689860548.677,40.527,37.109,38.086,25.879,57.129
1689860548.681,44.434,31.738,34.668,21.484,25.879
1689860548.685,59.570,35.156,35.645,32.227,-29.297
1689860548.689,55.664,36.133,37.109,36.621,-54.688
1689860548.693,39.551,35.156,35.156,28.809,-23.438
1689860548.697,31.250,35.645,32.715,14.160,-4.395
1689860548.700,38.574,36.621,30.762,11.230,16.113
1689860548.704,46.387,33.691,26.367,21.973,0.488
1689860548.708,43.457,30.762,30.273,27.344,3.418
1689860548.712,39.551,31.738,33.691,25.391,76.660
1689860548.716,36.621,33.203,36.133,23.926,32.227
1689860548.720,43.945,30.273,39.551,30.273,-29.785
1689860548.724,59.570,30.273,41.504,41.504,-4.883
1689860548.728,59.570,31.738,41.504,50.293,5.371
1689860548.732,53.223,30.762,47.363,57.129,-14.160
1689860548.736,50.781,31.738,52.246,62.012,55.176
1689860548.740,55.176,33.203,50.293,60.547,76.172
1689860548.743,69.824,34.668,51.758,59.082,-18.066
1689860548.747,71.289,35.645,51.270,65.918,-0.977
1689860548.751,60.059,37.109,51.270,64.941,85.449
1689860548.755,52.246,33.691,52.246,58.105,40.039
1689860548.759,54.199,29.785,47.363,52.246,5.371
1689860548.763,57.617,26.855,47.852,53.223,45.410
1689860548.767,54.199,24.902,51.758,62.988,10.742
1689860548.771,45.898,26.855,48.828,62.500,-36.621
1689860548.775,35.645,26.855,47.363,48.828,-2.930
1689860548.779,31.250,22.949,46.875,36.621,13.672
1689860548.783,40.039,21.973,45.898,38.574,100.586
1689860548.786,44.434,24.414,41.504,45.898,119.141
1689860548.790,37.109,25.879,37.109,38.086,18.066
1689860548.794,32.715,28.320,34.180,25.879,-3.906
1689860548.798,34.668,31.250,32.715,20.996,21.484
1689860548.802,48.340,28.809,30.762,21.973,10.742
1689860548.806,63.477,25.391,26.367,36.133,17.578
1689860548.810,58.105,26.855,24.414,40.527,71.289
1689860548.814,52.734,25.879,25.391,30.762,52.246
1689860548.818,55.176,25.391,29.297,21.484,36.621
1689860548.822,55.176,23.438,34.180,26.855,27.344
1689860548.825,53.711,22.461,37.109,45.898,24.414
1689860548.829,51.270,25.391,38.086,52.734,11.719
1689860548.833,47.852,28.809,41.504,48.340,-13.672
1689860548.837,44.434,28.809,40.039,42.480,21.973
1689860548.841,51.270,22.949,36.133,47.363,41.504
1689860548.845,58.105,24.414,35.645,60.547,24.414
1689860548.849,62.988,25.391,37.109,67.871,35.645
1689860548.853,59.570,24.414,39.551,67.383,22.949
1689860548.857,54.199,23.926,41.016,60.059,-44.922
1689860548.861,55.176,23.438,41.992,52.246,-76.660
1689860548.865,54.688,23.438,41.504,59.082,5.371
1689860548.868,53.711,22.461,44.434,69.336,68.848
1689860548.872,46.387,23.926,47.363,58.594,22.949
1689860548.876,40.527,25.391,42.480,41.016,14.160
1689860548.880,47.363,26.367,38.574,40.527,9.766
1689860548.884,56.641,29.297,44.434,54.199,0.488
1689860548.888,51.270,27.832,46.875,55.176,-3.418
1689860548.892,38.574,25.879,43.457,42.969,-11.719
1689860548.896,33.691,27.344,42.480,33.691,-17.090
1689860548.900,42.480,30.273,41.992,35.156,57.129
1689860548.904,55.664,33.691,43.945,46.387,42.969
1689860548.908,56.152,35.156,42.969,51.270,61.523
1689860548.911,47.363,36.621,36.621,48.828,83.984
1689860548.915,44.922,36.621,38.086,42.969,11.230
1689860548.919,48.828,34.668,40.527,40.039,35.156
1689860548.923,59.570,33.203,39.551,52.246,39.551
1689860548.927,62.012,31.738,42.480,57.129,38.574
1689860548.931,56.152,34.668,43.945,51.758,20.508
1689860548.935,44.434,35.645,42.480,41.016,-9.766
1689860548.939,41.504,30.273,38.574,30.273,-23.438
1689860548.943,56.152,32.715,39.551,44.922,-29.785
1689860548.947,58.594,34.180,41.016,62.988,7.812
1689860548.950,47.852,30.273,40.527,56.152,49.316
1689860548.954,39.062,27.344,39.062,40.039,93.262
1689860548.958,38.086,26.855,40.039,29.785,56.152
1689860548.962,47.852,28.320,41.504,35.156,26.855
1689860548.966,42.969,28.809,39.062,40.527,15.137
1689860548.970,24.902,29.297,41.016,35.645,14.648
1689860548.974,15.625,27.344,42.480,24.902,37.598
1689860548.978,9.766,29.785,42.480,10.254,62.500
1689860548.982,20.020,29.785,41.504,12.207,65.918
1689860548.986,31.250,30.762,39.062,26.367,-12.207
1689860548.990,23.926,33.691,38.086,34.180,32.715
1689860548.993,12.207,29.785,39.551,26.367,9.766
1689860548.997,11.230,29.297,39.062,10.254,-40.039
1689860549.001,20.508,28.809,35.156,16.602,10.254
1689860549.005,27.832,24.902,39.062,33.691,-4.883
1689860549.009,30.762,24.414,42.480,40.527,-18.066
1689860549.013,26.855,22.949,44.922,34.668,-36.621
1689860549.017,27.832,25.391,46.387,27.344,-17.578
1689860549.021,42.480,25.391,42.969,33.691,-21.973
1689860549.025,54.199,25.391,40.039,48.340,-38.574
1689860549.029,51.758,28.320,40.527,49.805,34.668
1689860549.032,42.480,30.273,41.016,43.457,58.105
1689860549.036,35.645,30.273,41.504,34.180,47.363
1689860549.040,40.039,25.879,42.969,30.273,18.555
1689860549.044,51.758,29.297,42.969,43.457,-1.953
1689860549.048,50.781,32.715,43.457,52.246,37.598
1689860549.052,40.527,32.227,48.340,49.805,16.602
1689860549.056,34.180,30.273,48.828,39.062,34.668
1689860549.060,37.109,26.855,48.340,35.156,46.875
1689860549.064,43.457,28.320,49.316,45.898,60.059
1689860549.068,41.992,29.785,47.852,51.758,60.059
1689860549.072,35.156,30.273,38.086,41.016,12.207
1689860549.075,28.320,31.250,31.738,24.902,11.230
1689860549.079,28.809,31.250,36.133,23.926,48.828
1689860549.083,39.062,30.762,38.086,36.621,14.648
1689860549.087,39.551,29.785,36.133,42.480,-16.113
1689860549.091,28.809,26.367,35.156,41.016,27.344
1689860549.095,21.484,21.484,35.156,24.902,-9.766
1689860549.099,28.320,23.926,35.156,21.973,-49.805
1689860549.103,42.480,29.297,35.156,39.551,-14.160
1689860549.107,41.504,26.855,34.668,39.062,-7.324
1689860549.111,28.320,25.879,32.715,38.086,55.176
1689860549.115,17.090,25.879,34.180,27.832,67.383
1689860549.118,19.043,20.508,35.645,19.531,36.133
1689860549.122,35.156,20.020,35.156,35.156,36.133
1689860549.126,36.133,20.508,39.551,43.457,23.438
1689860549.130,25.391,21.484,40.527,39.062,36.133
1689860549.134,21.973,22.461,34.668,24.902,45.410
1689860549.138,23.438,20.508,34.668,16.113,-1.465
1689860549.142,33.691,17.578,41.504,32.227,-0.488
1689860549.146,49.316,14.160,48.340,54.199,18.066
1689860549.150,61.035,11.719,52.246,70.801,46.387
1689860549.154,39.551,17.578,45.898,55.664,64.453
1689860549.158,17.578,26.855,40.039,22.949,53.711
1689860549.161,35.156,22.949,37.109,26.855,-2.930
1689860549.165,41.016,22.949,34.668,33.203,-60.059
1689860549.169,20.996,20.996,34.668,24.414,-30.762
1689860549.173,14.648,22.949,34.180,20.508,14.160
1689860549.177,14.648,29.297,32.715,10.742,9.766
1689860549.181,20.508,26.855,29.785,10.742,42.969
1689860549.185,32.715,25.391,25.391,27.832,52.734
1689860549.189,39.062,29.297,24.414,38.574,3.906
1689860549.193,37.109,30.762,28.320,31.738,-11.719
1689860549.197,35.156,28.320,29.297,25.391,-23.438
1689860549.200,42.969,23.438,27.344,33.203,72.266
1689860549.204,53.711,21.973,28.320,41.504,46.875
1689860549.208,55.176,22.461,31.738,47.363,35.645
1689860549.212,43.457,20.508,35.645,37.109,82.520
1689860549.216,38.574,20.508,38.086,33.203,61.523
1689860549.220,47.852,20.020,40.527,39.062,41.016
1689860549.224,58.105,20.996,38.574,48.828,4.883
1689860549.228,55.176,23.926,36.133,52.734,-20.020
1689860549.232,44.434,23.438,37.109,44.434,40.039
1689860549.236,41.016,22.949,37.109,36.133,65.918
1689860549.240,47.852,24.414,36.133,36.133,16.113
1689860549.243,54.688,22.949,36.133,46.387,53.711
1689860549.247,54.199,21.484,40.039,51.758,85.449
1689860549.251,42.969,23.438,41.016,41.992,-21.484
1689860549.255,32.227,22.461,37.109,31.250,-1.953
1689860549.259,35.156,20.996,41.016,36.133,24.902
1689860549.263,40.527,16.602,44.434,43.945,53.711
1689860549.267,41.504,11.719,41.992,50.293,55.176
1689860549.271,33.691,15.625,49.316,44.922,21.973
1689860549.275,22.461,15.625,52.734,33.691,13.672
1689860549.279,27.832,13.184,47.363,36.621,79.590
1689860549.283,40.527,16.113,46.387,40.039,117.676
1689860549.286,40.039,16.113,43.945,44.434,94.727
1689860549.290,34.668,16.602,44.922,41.992,123.535
1689860549.294,29.785,19.043,45.898,39.062,71.777
1689860549.298,27.344,18.066,41.016,42.969,26.855
1689860549.302,37.109,17.578,40.039,46.875,49.316
1689860549.306,41.016,17.090,41.504,54.199,56.152
1689860549.310,37.109,15.625,39.551,48.340,45.898
1689860549.314,32.227,16.113,38.086,41.016,87.402
1689860549.318,30.762,14.648,36.621,40.039,26.855
1689860549.322,43.945,14.648,33.691,45.410,-9.766
1689860549.325,54.199,21.973,36.621,59.570,19.043
1689860549.329,54.688,25.879,34.668,58.105,42.480
1689860549.333,49.805,27.832,33.203,48.828,78.125
1689860549.337,47.363,27.832,38.086,44.922,9.277
1689860549.341,62.500,28.809,41.992,48.828,-51.270
1689860549.345,72.266,30.273,44.922,62.500,15.137
1689860549.349,67.871,30.762,44.434,62.500,29.785
1689860549.353,59.082,32.227,43.457,55.176,28.809
1689860549.357,54.199,30.762,41.504,48.828,67.383
1689860549.361,62.012,26.855,40.039,46.875,19.043
1689860549.365,75.195,25.391,44.434,70.312,-20.508
1689860549.368,81.543,25.879,43.945,79.590,9.766
1689860549.372,61.523,30.762,37.598,54.199,32.715
1689860549.376,41.016,35.156,32.715,33.203,61.035
1689860549.380,47.852,31.738,33.203,32.227,123.535
1689860549.384,56.641,28.809,36.621,44.434,124.023
1689860549.388,53.223,30.273,35.645,48.340,67.871
1689860549.392,42.969,29.297,33.691,44.434,38.574
1689860549.396,36.621,22.949,34.668,41.504,2.930
1689860549.400,44.922,23.926,31.250,40.527,-3.418
1689860549.404,54.199,27.344,33.203,48.828,58.105
1689860549.407,45.898,25.391,39.062,45.410,60.059
1689860549.411,34.180,22.461,37.109,33.691,49.805
1689860549.415,26.855,19.531,35.645,29.297,97.656
1689860549.419,30.762,20.020,36.621,27.344,33.203
1689860549.423,44.434,22.461,38.086,33.691,25.391
1689860549.427,46.387,21.484,35.156,38.574,52.734
1689860549.431,39.062,22.461,30.273,41.504,-22.461
1689860549.435,35.156,26.367,32.227,45.410,-11.230
1689860549.439,38.086,25.391,34.668,41.016,64.941
1689860549.443,51.758,25.879,36.133,48.828,45.898
1689860549.447,54.688,27.344,36.133,54.688,0.000
1689860549.450,46.875,26.855,38.086,52.246,33.203
1689860549.454,38.086,29.297,39.551,48.828,34.180
1689860549.458,29.297,27.832,36.133,37.598,31.738
1689860549.462,39.551,26.367,35.156,44.922,39.062
1689860549.466,51.270,27.832,38.574,51.270,-0.488
1689860549.470,39.062,29.297,38.574,43.457,0.977
1689860549.474,29.785,27.344,36.621,36.133,-3.906
1689860549.478,33.203,29.297,42.480,30.273,-0.977
1689860549.482,41.504,30.273,49.316,41.504,40.039
1689860549.486,48.340,29.785,50.781,44.922,63.965
1689860549.490,46.387,30.762,48.340,40.527,47.852
1689860549.493,38.086,28.809,47.363,39.062,-52.246
1689860549.497,36.621,30.762,46.387,35.156,-39.062
1689860549.501,50.293,34.180,43.457,33.203,-15.137
1689860549.505,57.129,35.645,39.551,35.156,29.785
1689860549.509,53.223,36.621,39.062,34.180,43.457
1689860549.513,48.340,35.645,38.574,31.250,-19.531
1689860549.517,48.828,36.133,39.551,25.879,18.555
1689860549.521,62.500,37.598,36.621,29.297,80.078
1689860549.525,67.383,40.527,34.668,37.598,59.082
1689860549.529,60.059,40.039,38.574,45.410,-12.695
1689860549.532,53.223,38.086,41.016,57.617,-12.207
1689860549.536,49.316,35.645,42.480,54.199,2.930
1689860549.540,59.082,34.180,37.598,47.363,-2.930
1689860549.544,61.035,32.715,37.109,47.363,-2.441
1689860549.548,48.828,29.297,39.551,49.805,-5.859
1689860549.552,42.480,27.832,39.062,46.875,-7.812
1689860549.556,40.527,28.809,39.062,48.340,24.902
1689860549.560,47.363,30.273,39.062,51.270,81.055
1689860549.564,46.875,28.809,41.016,44.434,68.848
1689860549.568,38.086,25.391,42.969,46.875,-39.062
1689860549.572,25.391,23.438,42.969,41.016,-29.297
1689860549.575,10.742,24.902,43.457,31.738,31.250
1689860549.579,19.043,25.391,44.922,41.504,44.922
1689860549.583,38.574,25.879,46.387,50.293,55.664
1689860549.587,43.457,26.367,44.922,48.828,25.391
1689860549.591,31.250,23.926,41.016,42.969,96.191
1689860549.595,26.367,25.391,40.527,34.180,96.191
1689860549.599,37.109,28.809,39.062,35.156,18.555
1689860549.603,45.898,29.785,38.574,41.016,59.570
1689860549.607,47.363,29.297,40.527,48.340,76.172
1689860549.611,41.504,28.320,41.016,45.410,15.137
1689860549.615,38.574,28.809,42.969,41.016,24.902
1689860549.618,42.969,30.273,44.434,41.992,8.301
1689860549.622,52.734,28.809,42.969,44.922,-1.953
1689860549.626,54.199,28.809,40.039,49.316,-9.277
1689860549.630,46.387,29.297,40.527,50.293,-24.414
1689860549.634,39.551,28.320,41.992,45.898,-7.812
1689860549.638,45.898,31.250,41.504,46.875,3.906
1689860549.642,62.500,31.738,38.086,53.223,-7.324
1689860549.646,66.895,33.203,36.621,56.152,-9.766
1689860549.650,57.129,36.621,38.574,55.176,18.066
1689860549.654,46.875,34.668,39.062,43.945,49.316
1689860549.657,43.945,33.203,39.062,38.574,16.113
1689860549.661,49.805,34.668,34.180,39.551,41.016
1689860549.665,50.781,32.227,29.785,44.922,46.875
1689860549.669,43.457,29.785,27.832,46.875,-35.156
1689860549.673,34.668,30.273,30.762,36.621,39.062
1689860549.677,34.668,29.785,33.691,30.273,73.242
1689860549.681,41.504,29.297,33.203,35.156,39.062
1689860549.685,46.875,26.855,35.156,39.551,28.809
1689860549.689,46.875,24.414,37.109,45.898,33.691
1689860549.693,39.062,27.344,37.598,43.945,44.434
1689860549.697,37.598,29.785,36.621,34.180,37.598
1689860549.700,46.875,27.344,38.086,39.551,63.965
1689860549.704,54.688,29.297,37.109,48.340,39.551
1689860549.708,48.828,31.250,31.738,47.852,16.602
1689860549.712,36.621,30.273,31.250,39.551,-12.695
1689860549.716,35.645,31.738,34.180,34.180,-32.227
